----,
DateTime:                , 2025/06/13,  14:18:37, 1749817117526,
RFID_EPC:                , --Not Acquired--,
RFID_UserData:           , --Not Acquired--,
Barcode:                 , t Acquired--,
Position:,    0.0000,      0.0000,    NoData,
Spectrometer:,            STS,  SerialNo:, S05415,
Spectral range:,          600,    800,
Boxcar:,                    0,
Sampling time (s):,         0.500,
Samples per Acq:,           1, 
Total Acq. time (s):,       0.510,
Board Temp):,              58.9,
Detector Temp):,           36.6,
----------------------------,
Pixel ,Wavelen   ,Signal    ,
======,==========,==========,
 567,   600.42,     264.17,
 568,   600.90,     247.83,
 569,   601.38,     258.06,
 570,   601.86,     278.52,
 571,   602.34,     292.85,
 572,   602.81,     260.09,
 573,   603.29,     196.66,
 574,   603.77,     249.86,
 575,   604.25,     272.38,
 576,   604.73,     258.05,
 577,   605.21,     305.13,
 578,   605.69,     200.76,
 579,   606.16,     262.14,
 580,   606.64,     262.14,
 581,   607.12,     262.16,
 582,   607.60,     249.85,
 583,   608.08,     282.62,
 584,   608.56,     237.59,
 585,   609.04,     237.60,
 586,   609.52,     223.27,
 587,   609.99,     278.54,
 588,   610.47,     237.58,
 589,   610.95,     235.54,
 590,   611.43,     301.04,
 591,   611.91,     288.74,
 592,   612.39,     276.47,
 593,   612.87,     262.17,
 594,   613.35,     282.61,
 595,   613.83,     272.37,
 596,   614.31,     258.05,
 597,   614.79,     272.37,
 598,   615.26,     296.94,
 599,   615.74,     286.72,
 600,   616.22,     221.21,
 601,   616.70,     272.39,
 602,   617.18,     294.86,
 603,   617.66,     296.92,
 604,   618.14,     227.35,
 605,   618.62,     276.47,
 606,   619.10,     305.11,
 607,   619.58,     276.47,
 608,   620.06,     131.14,
 609,   620.54,     251.92,
 610,   621.02,     307.14,
 611,   621.50,     298.96,
 612,   621.98,     292.84,
 613,   622.46,     290.80,
 614,   622.94,     311.24,
 615,   623.42,     301.00,
 616,   623.90,     290.79,
 617,   624.38,     241.69,
 618,   624.86,     288.75,
 619,   625.34,     303.05,
 620,   625.82,     294.88,
 621,   626.30,     292.83,
 622,   626.78,     288.75,
 623,   627.26,     290.80,
 624,   627.74,     258.05,
 625,   628.22,     313.31,
 626,   628.70,     315.34,
 627,   629.18,     268.30,
 628,   629.66,     294.88,
 629,   630.14,     296.93,
 630,   630.62,     298.98,
 631,   631.10,     292.83,
 632,   631.58,     319.44,
 633,   632.06,     315.34,
 634,   632.54,     290.78,
 635,   633.02,     294.88,
 636,   633.50,     294.85,
 637,   633.98,     284.65,
 638,   634.47,     296.94,
 639,   634.95,     313.28,
 640,   635.43,     249.87,
 641,   635.91,     311.23,
 642,   636.39,     260.11,
 643,   636.87,     339.89,
 644,   637.35,     341.91,
 645,   637.83,     325.56,
 646,   638.31,     294.87,
 647,   638.79,     294.89,
 648,   639.27,     294.88,
 649,   639.75,     294.86,
 650,   640.24,     317.38,
 651,   640.72,     288.74,
 652,   641.20,     317.38,
 653,   641.68,     290.79,
 654,   642.16,     323.52,
 655,   642.64,     325.56,
 656,   643.12,     323.53,
 657,   643.60,     321.47,
 658,   644.09,     301.01,
 659,   644.57,     325.55,
 660,   645.05,     323.52,
 661,   645.53,     301.01,
 662,   646.01,     272.37,
 663,   646.49,     315.33,
 664,   646.97,     284.66,
 665,   647.46,     311.24,
 666,   647.94,     307.15,
 667,   648.42,     292.84,
 668,   648.90,     329.65,
 669,   649.38,     315.33,
 670,   649.86,     284.64,
 671,   650.35,     317.38,
 672,   650.83,     292.85,
 673,   651.31,     360.33,
 674,   651.79,     323.51,
 675,   652.27,     301.02,
 676,   652.76,     294.89,
 677,   653.24,     274.43,
 678,   653.72,     305.11,
 679,   654.20,     223.27,
 680,   654.68,     321.48,
 681,   655.17,     262.16,
 682,   655.65,     311.24,
 683,   656.13,     354.20,
 684,   656.61,     339.86,
 685,   657.09,     317.38,
 686,   657.58,     333.75,
 687,   658.06,     296.92,
 688,   658.54,     237.59,
 689,   659.02,     339.89,
 690,   659.51,     358.27,
 691,   659.99,     358.30,
 692,   660.47,     315.34,
 693,   660.95,     356.25,
 694,   661.44,     341.91,
 695,   661.92,     333.74,
 696,   662.40,     327.63,
 697,   662.88,     335.78,
 698,   663.37,     307.15,
 699,   663.85,     323.53,
 700,   664.33,     350.10,
 701,   664.81,     305.11,
 702,   665.30,     321.46,
 703,   665.78,     323.53,
 704,   666.26,     321.45,
 705,   666.74,     315.33,
 706,   667.23,     303.05,
 707,   667.71,     327.61,
 708,   668.19,     341.93,
 709,   668.68,     335.80,
 710,   669.16,     313.30,
 711,   669.64,     294.88,
 712,   670.13,     333.75,
 713,   670.61,     343.98,
 714,   671.09,     313.27,
 715,   671.57,     329.63,
 716,   672.06,     298.98,
 717,   672.54,     305.09,
 718,   673.02,     309.19,
 719,   673.51,     292.83,
 720,   673.99,     276.46,
 721,   674.47,     313.28,
 722,   674.96,     307.15,
 723,   675.44,     325.56,
 724,   675.92,     294.89,
 725,   676.41,     245.79,
 726,   676.89,     309.22,
 727,   677.37,     288.74,
 728,   677.86,     235.55,
 729,   678.34,     276.47,
 730,   678.83,     284.66,
 731,   679.31,     247.82,
 732,   679.79,     280.55,
 733,   680.28,     223.26,
 734,   680.76,     266.26,
 735,   681.24,     309.20,
 736,   681.73,     292.82,
 737,   682.21,     296.93,
 738,   682.70,     296.93,
 739,   683.18,     294.89,
 740,   683.66,     282.60,
 741,   684.15,     278.51,
 742,   684.63,     272.39,
 743,   685.12,     268.29,
 744,   685.60,     251.92,
 745,   686.08,     243.75,
 746,   686.57,     286.69,
 747,   687.05,     278.52,
 748,   687.54,     270.32,
 749,   688.02,     262.15,
 750,   688.50,     274.44,
 751,   688.99,     272.37,
 752,   689.47,     256.02,
 753,   689.96,     264.19,
 754,   690.44,     204.84,
 755,   690.93,     251.92,
 756,   691.41,     270.32,
 757,   691.89,     284.65,
 758,   692.38,     237.59,
 759,   692.86,     241.69,
 760,   693.35,     225.31,
 761,   693.83,     200.75,
 762,   694.32,     260.10,
 763,   694.80,     256.01,
 764,   695.29,     249.87,
 765,   695.77,     270.33,
 766,   696.25,     206.90,
 767,   696.74,     253.96,
 768,   697.22,     282.62,
 769,   697.71,     251.91,
 770,   698.19,     198.69,
 771,   698.68,     280.57,
 772,   699.16,     239.65,
 773,   699.65,     249.87,
 774,   700.13,     253.96,
 775,   700.62,     270.33,
 776,   701.10,     286.70,
 777,   701.59,     264.19,
 778,   702.07,     268.28,
 779,   702.56,     249.86,
 780,   703.04,     298.99,
 781,   703.53,     260.11,
 782,   704.01,     256.01,
 783,   704.50,     229.40,
 784,   704.98,     260.09,
 785,   705.47,     266.23,
 786,   705.95,     264.20,
 787,   706.44,     233.50,
 788,   706.92,     282.59,
 789,   707.41,     284.67,
 790,   707.89,     229.41,
 791,   708.38,     264.18,
 792,   708.87,     292.83,
 793,   709.35,     239.64,
 794,   709.84,     249.87,
 795,   710.32,     286.71,
 796,   710.81,     272.39,
 797,   711.29,     225.31,
 798,   711.78,     270.32,
 799,   712.26,     190.53,
 800,   712.75,     249.86,
 801,   713.24,     268.27,
 802,   713.72,     251.91,
 803,   714.21,     249.88,
 804,   714.69,     249.87,
 805,   715.18,     253.95,
 806,   715.66,     245.78,
 807,   716.15,     188.47,
 808,   716.64,     208.94,
 809,   717.12,     112.70,
 810,   717.61,     200.76,
 811,   718.09,     227.38,
 812,   718.58,     215.07,
 813,   719.06,     213.03,
 814,   719.55,     210.98,
 815,   720.04,     208.95,
 816,   720.52,     247.83,
 817,   721.01,     249.88,
 818,   721.49,     258.06,
 819,   721.98,     217.13,
 820,   722.47,     249.88,
 821,   722.95,     264.19,
 822,   723.44,     233.51,
 823,   723.93,     233.49,
 824,   724.41,     221.22,
 825,   724.90,     231.46,
 826,   725.38,     223.26,
 827,   725.87,     260.10,
 828,   726.36,     227.36,
 829,   726.84,     227.36,
 830,   727.33,     204.86,
 831,   727.82,     182.33,
 832,   728.30,     260.09,
 833,   728.79,     215.08,
 834,   729.28,     251.91,
 835,   729.76,     235.54,
 836,   730.25,     237.59,
 837,   730.74,     255.99,
 838,   731.22,     178.23,
 839,   731.71,     227.35,
 840,   732.20,     282.61,
 841,   732.68,     262.14,
 842,   733.17,     223.27,
 843,   733.66,     282.60,
 844,   734.14,     282.58,
 845,   734.63,     294.90,
 846,   735.12,     278.53,
 847,   735.60,     243.73,
 848,   736.09,     270.32,
 849,   736.58,     288.73,
 850,   737.06,     278.52,
 851,   737.55,     286.69,
 852,   738.04,     256.01,
 853,   738.52,     264.20,
 854,   739.01,     280.59,
 855,   739.50,     286.69,
 856,   739.99,     262.15,
 857,   740.47,     276.47,
 858,   740.96,     270.32,
 859,   741.45,     258.08,
 860,   741.93,     172.10,
 861,   742.42,     266.23,
 862,   742.91,     276.46,
 863,   743.40,     278.52,
 864,   743.88,     274.43,
 865,   744.37,     262.15,
 866,   744.86,     262.15,
 867,   745.35,     266.23,
 868,   745.83,     225.30,
 869,   746.32,     258.06,
 870,   746.81,     219.17,
 871,   747.29,     272.39,
 872,   747.78,     258.07,
 873,   748.27,     270.33,
 874,   748.76,     190.51,
 875,   749.24,     223.26,
 876,   749.73,     229.40,
 877,   750.22,     260.09,
 878,   750.71,     247.83,
 879,   751.20,     258.05,
 880,   751.68,     239.64,
 881,   752.17,     260.10,
 882,   752.66,     233.49,
 883,   753.15,     247.81,
 884,   753.63,     266.25,
 885,   754.12,     278.54,
 886,   754.61,     237.59,
 887,   755.10,     256.00,
 888,   755.58,     232.48,
 889,   756.07,     208.94,
 890,   756.56,     215.09,
 891,   757.05,     217.12,
 892,   757.54,     245.80,
 893,   758.02,     135.24,
 894,   758.51,     182.32,
 895,   759.00,     178.23,
 896,   759.49,     223.27,
 897,   759.98,     233.51,
 898,   760.46,     178.24,
 899,   760.95,     204.85,
 900,   761.44,     221.21,
 901,   761.93,     211.00,
 902,   762.42,     202.81,
 903,   762.91,     165.95,
 904,   763.39,     237.59,
 905,   763.88,     219.18,
 906,   764.37,      90.17,
 907,   764.86,     227.36,
 908,   765.35,     239.64,
 909,   765.84,     264.21,
 910,   766.32,     208.94,
 911,   766.81,     229.41,
 912,   767.30,     253.96,
 913,   767.79,     251.91,
 914,   768.28,     190.52,
 915,   768.77,     266.23,
 916,   769.25,     245.77,
 917,   769.74,     276.48,
 918,   770.23,     225.30,
 919,   770.72,     256.01,
 920,   771.21,     227.36,
 921,   771.70,     266.25,
 922,   772.19,     303.05,
 923,   772.67,     298.99,
 924,   773.16,     266.23,
 925,   773.65,     260.11,
 926,   774.14,     313.29,
 927,   774.63,     260.09,
 928,   775.12,     239.63,
 929,   775.61,     219.15,
 930,   776.10,     280.57,
 931,   776.59,     253.95,
 932,   777.07,     282.61,
 933,   777.56,     264.18,
 934,   778.05,     296.93,
 935,   778.54,     292.84,
 936,   779.03,     253.97,
 937,   779.52,     311.26,
 938,   780.01,     325.57,
 939,   780.50,     223.27,
 940,   780.99,     280.57,
 941,   781.47,     319.43,
 942,   781.96,     309.19,
 943,   782.45,     319.43,
 944,   782.94,     298.97,
 945,   783.43,     311.25,
 946,   783.92,     303.05,
 947,   784.41,     333.76,
 948,   784.90,     313.28,
 949,   785.39,     311.25,
 950,   785.88,     346.02,
 951,   786.37,     305.11,
 952,   786.86,     296.92,
 953,   787.35,     337.81,
 954,   787.83,     282.60,
 955,   788.32,     325.56,
 956,   788.81,     294.87,
 957,   789.30,     337.83,
 958,   789.79,     309.19,
 959,   790.28,     331.70,
 960,   790.77,     348.07,
 961,   791.26,     311.25,
 962,   791.75,     343.94,
 963,   792.24,     305.11,
 964,   792.73,     313.30,
 965,   793.22,     311.23,
 966,   793.71,     354.17,
 967,   794.20,     372.58,
 968,   794.69,     333.74,
 969,   795.18,     319.41,
 970,   795.67,     327.61,
 971,   796.16,     317.39,
 972,   796.65,     376.68,
 973,   797.14,     378.72,
 974,   797.63,     370.53,
 975,   798.12,     405.29,
 976,   798.61,     403.26,
 977,   799.10,     386.90,
 978,   799.59,     352.13,
 979,   800.08,     413.46,

----,
DateTime:                , 2025/06/13,  14:18:38, 1749817119182,
RFID_EPC:                , --Not Acquired--,
RFID_UserData:           , --Not Acquired--,
Barcode:                 , t Acquired--,
Position:,    0.0000,      0.0000,    NoData,
Spectrometer:,            STS,  SerialNo:, S05415,
Spectral range:,          600,    800,
Boxcar:,                    0,
Sampling time (s):,         0.500,
Samples per Acq:,           1, 
Total Acq. time (s):,       0.524,
Board Temp):,              58.9,
Detector Temp):,           36.6,
----------------------------,
Pixel ,Wavelen   ,Signal    ,
======,==========,==========,
 567,   600.42,     274.43,
 568,   600.90,     241.68,
 569,   601.38,     260.11,
 570,   601.86,     284.65,
 571,   602.34,     286.69,
 572,   602.81,     268.29,
 573,   603.29,     200.75,
 574,   603.77,     258.06,
 575,   604.25,     274.42,
 576,   604.73,     268.30,
 577,   605.21,     296.94,
 578,   605.69,     213.03,
 579,   606.16,     266.23,
 580,   606.64,     272.38,
 581,   607.12,     249.88,
 582,   607.60,     266.24,
 583,   608.08,     272.39,
 584,   608.56,     235.55,
 585,   609.04,     241.70,
 586,   609.52,     231.45,
 587,   609.99,     266.24,
 588,   610.47,     256.01,
 589,   610.95,     241.69,
 590,   611.43,     290.79,
 591,   611.91,     294.88,
 592,   612.39,     276.48,
 593,   612.87,     251.92,
 594,   613.35,     272.37,
 595,   613.83,     284.67,
 596,   614.31,     274.44,
 597,   614.79,     290.80,
 598,   615.26,     280.56,
 599,   615.74,     270.34,
 600,   616.22,     223.27,
 601,   616.70,     272.39,
 602,   617.18,     305.09,
 603,   617.66,     305.12,
 604,   618.14,     221.20,
 605,   618.62,     278.52,
 606,   619.10,     303.05,
 607,   619.58,     294.90,
 608,   620.06,     127.04,
 609,   620.54,     260.11,
 610,   621.02,     313.29,
 611,   621.50,     309.20,
 612,   621.98,     288.75,
 613,   622.46,     298.98,
 614,   622.94,     315.34,
 615,   623.42,     298.98,
 616,   623.90,     290.79,
 617,   624.38,     243.74,
 618,   624.86,     286.70,
 619,   625.34,     294.87,
 620,   625.82,     298.97,
 621,   626.30,     305.12,
 622,   626.78,     286.69,
 623,   627.26,     294.89,
 624,   627.74,     260.11,
 625,   628.22,     313.29,
 626,   628.70,     303.04,
 627,   629.18,     266.23,
 628,   629.66,     301.01,
 629,   630.14,     303.06,
 630,   630.62,     294.89,
 631,   631.10,     294.88,
 632,   631.58,     307.14,
 633,   632.06,     315.33,
 634,   632.54,     298.97,
 635,   633.02,     286.68,
 636,   633.50,     313.30,
 637,   633.98,     292.84,
 638,   634.47,     307.16,
 639,   634.95,     323.51,
 640,   635.43,     247.81,
 641,   635.91,     307.14,
 642,   636.39,     276.49,
 643,   636.87,     335.79,
 644,   637.35,     341.91,
 645,   637.83,     331.71,
 646,   638.31,     305.10,
 647,   638.79,     296.92,
 648,   639.27,     309.20,
 649,   639.75,     301.01,
 650,   640.24,     329.66,
 651,   640.72,     311.24,
 652,   641.20,     317.38,
 653,   641.68,     288.75,
 654,   642.16,     319.42,
 655,   642.64,     331.69,
 656,   643.12,     311.23,
 657,   643.60,     341.95,
 658,   644.09,     315.33,
 659,   644.57,     327.60,
 660,   645.05,     337.85,
 661,   645.53,     305.11,
 662,   646.01,     286.71,
 663,   646.49,     313.28,
 664,   646.97,     288.74,
 665,   647.46,     315.33,
 666,   647.94,     305.10,
 667,   648.42,     286.70,
 668,   648.90,     331.70,
 669,   649.38,     335.79,
 670,   649.86,     292.84,
 671,   650.35,     313.28,
 672,   650.83,     286.68,
 673,   651.31,     360.33,
 674,   651.79,     335.79,
 675,   652.27,     311.25,
 676,   652.76,     307.16,
 677,   653.24,     286.71,
 678,   653.72,     319.44,
 679,   654.20,     208.93,
 680,   654.68,     325.56,
 681,   655.17,     272.38,
 682,   655.65,     317.37,
 683,   656.13,     339.85,
 684,   656.61,     360.36,
 685,   657.09,     321.46,
 686,   657.58,     333.74,
 687,   658.06,     307.16,
 688,   658.54,     249.88,
 689,   659.02,     337.81,
 690,   659.51,     360.31,
 691,   659.99,     348.04,
 692,   660.47,     315.33,
 693,   660.95,     346.02,
 694,   661.44,     348.04,
 695,   661.92,     333.74,
 696,   662.40,     331.71,
 697,   662.88,     364.42,
 698,   663.37,     317.38,
 699,   663.85,     321.48,
 700,   664.33,     348.04,
 701,   664.81,     313.31,
 702,   665.30,     339.89,
 703,   665.78,     329.66,
 704,   666.26,     329.65,
 705,   666.74,     315.33,
 706,   667.23,     325.57,
 707,   667.71,     329.65,
 708,   668.19,     339.88,
 709,   668.68,     331.70,
 710,   669.16,     327.60,
 711,   669.64,     298.98,
 712,   670.13,     343.96,
 713,   670.61,     341.92,
 714,   671.09,     333.75,
 715,   671.57,     346.00,
 716,   672.06,     298.95,
 717,   672.54,     313.27,
 718,   673.02,     317.39,
 719,   673.51,     308.18,
 720,   673.99,     298.98,
 721,   674.47,     317.38,
 722,   674.96,     329.67,
 723,   675.44,     329.66,
 724,   675.92,     313.30,
 725,   676.41,     251.93,
 726,   676.89,     311.23,
 727,   677.37,     305.12,
 728,   677.86,     239.64,
 729,   678.34,     272.38,
 730,   678.83,     290.80,
 731,   679.31,     260.10,
 732,   679.79,     294.87,
 733,   680.28,     223.27,
 734,   680.76,     258.06,
 735,   681.24,     321.48,
 736,   681.73,     315.33,
 737,   682.21,     296.93,
 738,   682.70,     303.06,
 739,   683.18,     296.94,
 740,   683.66,     278.50,
 741,   684.15,     282.59,
 742,   684.63,     288.74,
 743,   685.12,     282.63,
 744,   685.60,     264.19,
 745,   686.08,     241.68,
 746,   686.57,     296.94,
 747,   687.05,     278.51,
 748,   687.54,     272.37,
 749,   688.02,     278.52,
 750,   688.50,     268.29,
 751,   688.99,     270.32,
 752,   689.47,     258.06,
 753,   689.96,     284.66,
 754,   690.44,     223.28,
 755,   690.93,     243.73,
 756,   691.41,     278.53,
 757,   691.89,     292.84,
 758,   692.38,     239.64,
 759,   692.86,     247.83,
 760,   693.35,     229.41,
 761,   693.83,     221.22,
 762,   694.32,     274.42,
 763,   694.80,     245.77,
 764,   695.29,     270.34,
 765,   695.77,     278.52,
 766,   696.25,     217.13,
 767,   696.74,     249.86,
 768,   697.22,     278.52,
 769,   697.71,     278.52,
 770,   698.19,     210.98,
 771,   698.68,     278.52,
 772,   699.16,     235.55,
 773,   699.65,     243.71,
 774,   700.13,     260.09,
 775,   700.62,     264.19,
 776,   701.10,     286.70,
 777,   701.59,     284.66,
 778,   702.07,     272.37,
 779,   702.56,     258.05,
 780,   703.04,     296.92,
 781,   703.53,     264.19,
 782,   704.01,     260.09,
 783,   704.50,     235.56,
 784,   704.98,     282.62,
 785,   705.47,     286.70,
 786,   705.95,     276.48,
 787,   706.44,     239.65,
 788,   706.92,     296.92,
 789,   707.41,     282.62,
 790,   707.89,     231.46,
 791,   708.38,     288.76,
 792,   708.87,     290.78,
 793,   709.35,     249.88,
 794,   709.84,     264.21,
 795,   710.32,     290.78,
 796,   710.81,     270.33,
 797,   711.29,     231.45,
 798,   711.78,     272.37,
 799,   712.26,     188.47,
 800,   712.75,     272.38,
 801,   713.24,     284.66,
 802,   713.72,     249.86,
 803,   714.21,     253.96,
 804,   714.69,     262.14,
 805,   715.18,     268.29,
 806,   715.66,     245.77,
 807,   716.15,     200.75,
 808,   716.64,     225.33,
 809,   717.12,     112.70,
 810,   717.61,     196.66,
 811,   718.09,     221.22,
 812,   718.58,     225.31,
 813,   719.06,     206.88,
 814,   719.55,     215.09,
 815,   720.04,     210.98,
 816,   720.52,     264.19,
 817,   721.01,     253.96,
 818,   721.49,     262.14,
 819,   721.98,     229.42,
 820,   722.47,     251.91,
 821,   722.95,     264.19,
 822,   723.44,     219.16,
 823,   723.93,     239.63,
 824,   724.41,     245.78,
 825,   724.90,     245.78,
 826,   725.38,     233.49,
 827,   725.87,     272.40,
 828,   726.36,     231.44,
 829,   726.84,     243.74,
 830,   727.33,     215.08,
 831,   727.82,     194.63,
 832,   728.30,     274.43,
 833,   728.79,     223.25,
 834,   729.28,     258.06,
 835,   729.76,     239.63,
 836,   730.25,     241.68,
 837,   730.74,     264.17,
 838,   731.22,     182.32,
 839,   731.71,     243.72,
 840,   732.20,     288.75,
 841,   732.68,     288.76,
 842,   733.17,     237.59,
 843,   733.66,     296.92,
 844,   734.14,     303.08,
 845,   734.63,     303.09,
 846,   735.12,     266.23,
 847,   735.60,     253.97,
 848,   736.09,     278.50,
 849,   736.58,     284.64,
 850,   737.06,     278.51,
 851,   737.55,     288.75,
 852,   738.04,     258.06,
 853,   738.52,     262.14,
 854,   739.01,     278.52,
 855,   739.50,     290.79,
 856,   739.99,     262.14,
 857,   740.47,     284.66,
 858,   740.96,     292.84,
 859,   741.45,     264.19,
 860,   741.93,     178.24,
 861,   742.42,     290.79,
 862,   742.91,     272.37,
 863,   743.40,     280.56,
 864,   743.88,     280.56,
 865,   744.37,     272.37,
 866,   744.86,     274.44,
 867,   745.35,     270.32,
 868,   745.83,     245.79,
 869,   746.32,     272.39,
 870,   746.81,     235.55,
 871,   747.29,     280.56,
 872,   747.78,     251.91,
 873,   748.27,     278.51,
 874,   748.76,     200.75,
 875,   749.24,     233.50,
 876,   749.73,     243.73,
 877,   750.22,     268.28,
 878,   750.71,     256.02,
 879,   751.20,     262.14,
 880,   751.68,     237.59,
 881,   752.17,     266.24,
 882,   752.66,     256.02,
 883,   753.15,     262.14,
 884,   753.63,     258.06,
 885,   754.12,     280.55,
 886,   754.61,     256.00,
 887,   755.10,     274.44,
 888,   755.58,     243.74,
 889,   756.07,     213.03,
 890,   756.56,     227.36,
 891,   757.05,     235.55,
 892,   757.54,     237.59,
 893,   758.02,     127.04,
 894,   758.51,     208.94,
 895,   759.00,     188.47,
 896,   759.49,     227.35,
 897,   759.98,     233.51,
 898,   760.46,     188.48,
 899,   760.95,     221.21,
 900,   761.44,     223.26,
 901,   761.93,     194.60,
 902,   762.42,     200.75,
 903,   762.91,     182.33,
 904,   763.39,     239.64,
 905,   763.88,     217.12,
 906,   764.37,      92.21,
 907,   764.86,     241.69,
 908,   765.35,     251.92,
 909,   765.84,     251.91,
 910,   766.32,     208.93,
 911,   766.81,     235.54,
 912,   767.30,     249.86,
 913,   767.79,     249.86,
 914,   768.28,     200.75,
 915,   768.77,     278.51,
 916,   769.25,     258.05,
 917,   769.74,     280.56,
 918,   770.23,     251.93,
 919,   770.72,     276.48,
 920,   771.21,     247.82,
 921,   771.70,     260.10,
 922,   772.19,     317.39,
 923,   772.67,     311.27,
 924,   773.16,     286.71,
 925,   773.65,     260.10,
 926,   774.14,     301.00,
 927,   774.63,     270.33,
 928,   775.12,     256.01,
 929,   775.61,     233.50,
 930,   776.10,     284.65,
 931,   776.59,     284.67,
 932,   777.07,     301.04,
 933,   777.56,     290.79,
 934,   778.05,     294.88,
 935,   778.54,     301.02,
 936,   779.03,     276.49,
 937,   779.52,     317.36,
 938,   780.01,     333.74,
 939,   780.50,     229.41,
 940,   780.99,     282.60,
 941,   781.47,     343.98,
 942,   781.96,     331.71,
 943,   782.45,     323.51,
 944,   782.94,     321.48,
 945,   783.43,     321.47,
 946,   783.92,     321.47,
 947,   784.41,     325.57,
 948,   784.90,     327.60,
 949,   785.39,     323.51,
 950,   785.88,     350.10,
 951,   786.37,     315.34,
 952,   786.86,     301.01,
 953,   787.35,     360.33,
 954,   787.83,     305.11,
 955,   788.32,     325.55,
 956,   788.81,     307.14,
 957,   789.30,     343.95,
 958,   789.79,     321.47,
 959,   790.28,     327.60,
 960,   790.77,     345.99,
 961,   791.26,     335.81,
 962,   791.75,     350.07,
 963,   792.24,     315.33,
 964,   792.73,     329.65,
 965,   793.22,     319.41,
 966,   793.71,     378.72,
 967,   794.20,     384.85,
 968,   794.69,     356.25,
 969,   795.18,     339.88,
 970,   795.67,     339.88,
 971,   796.16,     325.55,
 972,   796.65,     384.84,
 973,   797.14,     399.16,
 974,   797.63,     409.42,
 975,   798.12,     403.24,
 976,   798.61,     413.49,
 977,   799.10,     395.06,
 978,   799.59,     376.68,
 979,   800.08,     427.79,

----,
DateTime:                , 2025/06/13,  14:18:40, 1749817120682,
RFID_EPC:                , --Not Acquired--,
RFID_UserData:           , --Not Acquired--,
Barcode:                 , t Acquired--,
Position:,    0.0000,      0.0000,    NoData,
Spectrometer:,            STS,  SerialNo:, S05415,
Spectral range:,          600,    800,
Boxcar:,                    0,
Sampling time (s):,         0.500,
Samples per Acq:,           1, 
Total Acq. time (s):,       0.516,
Board Temp):,              58.9,
Detector Temp):,           36.6,
----------------------------,
Pixel ,Wavelen   ,Signal    ,
======,==========,==========,
 567,   600.42,     247.82,
 568,   600.90,     215.07,
 569,   601.38,     221.21,
 570,   601.86,     260.10,
 571,   602.34,     274.42,
 572,   602.81,     237.59,
 573,   603.29,     190.52,
 574,   603.77,     223.26,
 575,   604.25,     264.21,
 576,   604.73,     239.63,
 577,   605.21,     270.34,
 578,   605.69,     192.57,
 579,   606.16,     247.82,
 580,   606.64,     258.06,
 581,   607.12,     229.40,
 582,   607.60,     233.50,
 583,   608.08,     258.06,
 584,   608.56,     213.04,
 585,   609.04,     206.89,
 586,   609.52,     204.85,
 587,   609.99,     247.83,
 588,   610.47,     229.43,
 589,   610.95,     208.94,
 590,   611.43,     270.34,
 591,   611.91,     266.23,
 592,   612.39,     264.20,
 593,   612.87,     225.32,
 594,   613.35,     262.16,
 595,   613.83,     262.15,
 596,   614.31,     241.69,
 597,   614.79,     245.78,
 598,   615.26,     258.05,
 599,   615.74,     260.11,
 600,   616.22,     190.51,
 601,   616.70,     251.93,
 602,   617.18,     286.70,
 603,   617.66,     266.23,
 604,   618.14,     208.94,
 605,   618.62,     253.97,
 606,   619.10,     255.99,
 607,   619.58,     253.96,
 608,   620.06,     104.51,
 609,   620.54,     231.46,
 610,   621.02,     290.80,
 611,   621.50,     278.52,
 612,   621.98,     266.25,
 613,   622.46,     262.16,
 614,   622.94,     284.65,
 615,   623.42,     282.61,
 616,   623.90,     270.33,
 617,   624.38,     235.57,
 618,   624.86,     262.16,
 619,   625.34,     266.24,
 620,   625.82,     266.24,
 621,   626.30,     278.52,
 622,   626.78,     272.39,
 623,   627.26,     272.40,
 624,   627.74,     233.50,
 625,   628.22,     280.56,
 626,   628.70,     270.33,
 627,   629.18,     235.55,
 628,   629.66,     274.43,
 629,   630.14,     268.27,
 630,   630.62,     264.20,
 631,   631.10,     266.25,
 632,   631.58,     284.66,
 633,   632.06,     292.84,
 634,   632.54,     266.24,
 635,   633.02,     264.20,
 636,   633.50,     288.75,
 637,   633.98,     264.21,
 638,   634.47,     268.29,
 639,   634.95,     296.93,
 640,   635.43,     223.26,
 641,   635.91,     288.75,
 642,   636.39,     217.12,
 643,   636.87,     303.07,
 644,   637.35,     307.15,
 645,   637.83,     301.02,
 646,   638.31,     276.47,
 647,   638.79,     272.39,
 648,   639.27,     274.44,
 649,   639.75,     278.54,
 650,   640.24,     280.56,
 651,   640.72,     270.33,
 652,   641.20,     298.97,
 653,   641.68,     268.29,
 654,   642.16,     284.64,
 655,   642.64,     296.93,
 656,   643.12,     280.57,
 657,   643.60,     303.10,
 658,   644.09,     276.48,
 659,   644.57,     286.69,
 660,   645.05,     296.93,
 661,   645.53,     274.42,
 662,   646.01,     243.73,
 663,   646.49,     296.92,
 664,   646.97,     245.78,
 665,   647.46,     280.55,
 666,   647.94,     272.37,
 667,   648.42,     256.01,
 668,   648.90,     292.83,
 669,   649.38,     280.56,
 670,   649.86,     256.01,
 671,   650.35,     288.74,
 672,   650.83,     256.01,
 673,   651.31,     325.56,
 674,   651.79,     290.79,
 675,   652.27,     262.13,
 676,   652.76,     266.24,
 677,   653.24,     235.53,
 678,   653.72,     276.48,
 679,   654.20,     198.72,
 680,   654.68,     282.60,
 681,   655.17,     233.50,
 682,   655.65,     276.47,
 683,   656.13,     315.35,
 684,   656.61,     311.26,
 685,   657.09,     294.90,
 686,   657.58,     309.21,
 687,   658.06,     266.24,
 688,   658.54,     215.08,
 689,   659.02,     307.15,
 690,   659.51,     329.67,
 691,   659.99,     303.04,
 692,   660.47,     270.33,
 693,   660.95,     307.15,
 694,   661.44,     315.33,
 695,   661.92,     307.18,
 696,   662.40,     284.66,
 697,   662.88,     309.21,
 698,   663.37,     280.56,
 699,   663.85,     278.51,
 700,   664.33,     321.48,
 701,   664.81,     266.22,
 702,   665.30,     296.93,
 703,   665.78,     294.89,
 704,   666.26,     290.78,
 705,   666.74,     288.75,
 706,   667.23,     288.74,
 707,   667.71,     290.79,
 708,   668.19,     311.26,
 709,   668.68,     284.66,
 710,   669.16,     278.52,
 711,   669.64,     266.24,
 712,   670.13,     309.20,
 713,   670.61,     317.39,
 714,   671.09,     305.13,
 715,   671.57,     307.16,
 716,   672.06,     253.95,
 717,   672.54,     276.46,
 718,   673.02,     276.48,
 719,   673.51,     260.10,
 720,   673.99,     243.72,
 721,   674.47,     284.66,
 722,   674.96,     286.70,
 723,   675.44,     284.65,
 724,   675.92,     264.19,
 725,   676.41,     223.29,
 726,   676.89,     276.47,
 727,   677.37,     262.15,
 728,   677.86,     204.85,
 729,   678.34,     262.16,
 730,   678.83,     262.16,
 731,   679.31,     223.25,
 732,   679.79,     266.24,
 733,   680.28,     192.56,
 734,   680.76,     217.11,
 735,   681.24,     270.32,
 736,   681.73,     276.47,
 737,   682.21,     286.72,
 738,   682.70,     282.62,
 739,   683.18,     260.10,
 740,   683.66,     241.69,
 741,   684.15,     258.05,
 742,   684.63,     251.92,
 743,   685.12,     241.69,
 744,   685.60,     213.02,
 745,   686.08,     229.42,
 746,   686.57,     268.30,
 747,   687.05,     262.16,
 748,   687.54,     256.01,
 749,   688.02,     251.93,
 750,   688.50,     251.92,
 751,   688.99,     249.86,
 752,   689.47,     231.45,
 753,   689.96,     239.64,
 754,   690.44,     204.86,
 755,   690.93,     227.36,
 756,   691.41,     268.29,
 757,   691.89,     258.05,
 758,   692.38,     219.17,
 759,   692.86,     225.32,
 760,   693.35,     196.65,
 761,   693.83,     186.42,
 762,   694.32,     258.06,
 763,   694.80,     235.54,
 764,   695.29,     258.06,
 765,   695.77,     256.01,
 766,   696.25,     200.77,
 767,   696.74,     243.73,
 768,   697.22,     268.29,
 769,   697.71,     258.06,
 770,   698.19,     190.52,
 771,   698.68,     258.06,
 772,   699.16,     231.45,
 773,   699.65,     243.73,
 774,   700.13,     247.82,
 775,   700.62,     260.10,
 776,   701.10,     266.23,
 777,   701.59,     260.09,
 778,   702.07,     260.09,
 779,   702.56,     253.97,
 780,   703.04,     286.71,
 781,   703.53,     251.91,
 782,   704.01,     249.87,
 783,   704.50,     208.93,
 784,   704.98,     266.24,
 785,   705.47,     266.23,
 786,   705.95,     266.24,
 787,   706.44,     225.31,
 788,   706.92,     294.89,
 789,   707.41,     276.46,
 790,   707.89,     231.44,
 791,   708.38,     278.53,
 792,   708.87,     284.65,
 793,   709.35,     233.49,
 794,   709.84,     256.01,
 795,   710.32,     296.93,
 796,   710.81,     264.20,
 797,   711.29,     237.60,
 798,   711.78,     282.60,
 799,   712.26,     198.72,
 800,   712.75,     256.01,
 801,   713.24,     288.76,
 802,   713.72,     268.29,
 803,   714.21,     264.19,
 804,   714.69,     270.32,
 805,   715.18,     278.52,
 806,   715.66,     260.10,
 807,   716.15,     217.12,
 808,   716.64,     235.57,
 809,   717.12,     120.90,
 810,   717.61,     206.90,
 811,   718.09,     231.46,
 812,   718.58,     233.49,
 813,   719.06,     227.36,
 814,   719.55,     227.37,
 815,   720.04,     239.64,
 816,   720.52,     270.32,
 817,   721.01,     272.38,
 818,   721.49,     280.57,
 819,   721.98,     247.84,
 820,   722.47,     268.29,
 821,   722.95,     286.70,
 822,   723.44,     251.93,
 823,   723.93,     274.42,
 824,   724.41,     260.10,
 825,   724.90,     245.76,
 826,   725.38,     247.82,
 827,   725.87,     284.65,
 828,   726.36,     249.86,
 829,   726.84,     264.20,
 830,   727.33,     217.13,
 831,   727.82,     215.09,
 832,   728.30,     294.89,
 833,   728.79,     249.88,
 834,   729.28,     276.47,
 835,   729.76,     256.00,
 836,   730.25,     260.10,
 837,   730.74,     292.83,
 838,   731.22,     204.84,
 839,   731.71,     282.60,
 840,   732.20,     292.84,
 841,   732.68,     294.88,
 842,   733.17,     264.20,
 843,   733.66,     323.51,
 844,   734.14,     321.48,
 845,   734.63,     317.39,
 846,   735.12,     313.29,
 847,   735.60,     278.51,
 848,   736.09,     305.09,
 849,   736.58,     331.70,
 850,   737.06,     313.29,
 851,   737.55,     329.67,
 852,   738.04,     292.84,
 853,   738.52,     296.93,
 854,   739.01,     311.26,
 855,   739.50,     317.38,
 856,   739.99,     294.88,
 857,   740.47,     315.33,
 858,   740.96,     305.10,
 859,   741.45,     303.07,
 860,   741.93,     190.51,
 861,   742.42,     323.52,
 862,   742.91,     323.52,
 863,   743.40,     309.19,
 864,   743.88,     309.19,
 865,   744.37,     303.06,
 866,   744.86,     303.07,
 867,   745.35,     309.19,
 868,   745.83,     270.34,
 869,   746.32,     309.20,
 870,   746.81,     255.99,
 871,   747.29,     313.29,
 872,   747.78,     282.61,
 873,   748.27,     325.58,
 874,   748.76,     235.55,
 875,   749.24,     268.29,
 876,   749.73,     270.32,
 877,   750.22,     296.92,
 878,   750.71,     294.88,
 879,   751.20,     307.16,
 880,   751.68,     282.60,
 881,   752.17,     303.06,
 882,   752.66,     286.71,
 883,   753.15,     307.16,
 884,   753.63,     294.88,
 885,   754.12,     313.28,
 886,   754.61,     298.99,
 887,   755.10,     305.11,
 888,   755.58,     270.33,
 889,   756.07,     235.54,
 890,   756.56,     253.97,
 891,   757.05,     264.20,
 892,   757.54,     258.04,
 893,   758.02,     155.71,
 894,   758.51,     239.65,
 895,   759.00,     221.23,
 896,   759.49,     258.06,
 897,   759.98,     258.06,
 898,   760.46,     200.74,
 899,   760.95,     247.83,
 900,   761.44,     245.77,
 901,   761.93,     221.21,
 902,   762.42,     225.31,
 903,   762.91,     223.26,
 904,   763.39,     262.14,
 905,   763.88,     241.68,
 906,   764.37,     114.74,
 907,   764.86,     258.05,
 908,   765.35,     290.82,
 909,   765.84,     301.02,
 910,   766.32,     249.86,
 911,   766.81,     280.55,
 912,   767.30,     298.98,
 913,   767.79,     284.65,
 914,   768.28,     231.46,
 915,   768.77,     329.67,
 916,   769.25,     298.96,
 917,   769.74,     315.33,
 918,   770.23,     296.94,
 919,   770.72,     305.10,
 920,   771.21,     270.32,
 921,   771.70,     303.06,
 922,   772.19,     358.27,
 923,   772.67,     366.48,
 924,   773.16,     317.38,
 925,   773.65,     311.24,
 926,   774.14,     354.18,
 927,   774.63,     315.34,
 928,   775.12,     288.74,
 929,   775.61,     278.51,
 930,   776.10,     346.03,
 931,   776.59,     333.75,
 932,   777.07,     335.78,
 933,   777.56,     325.56,
 934,   778.05,     337.81,
 935,   778.54,     358.29,
 936,   779.03,     307.15,
 937,   779.52,     360.32,
 938,   780.01,     370.54,
 939,   780.50,     286.71,
 940,   780.99,     335.78,
 941,   781.47,     382.80,
 942,   781.96,     364.38,
 943,   782.45,     376.65,
 944,   782.94,     362.38,
 945,   783.43,     372.58,
 946,   783.92,     358.26,
 947,   784.41,     372.58,
 948,   784.90,     382.81,
 949,   785.39,     372.59,
 950,   785.88,     401.20,
 951,   786.37,     368.51,
 952,   786.86,     364.42,
 953,   787.35,     413.46,
 954,   787.83,     331.70,
 955,   788.32,     384.84,
 956,   788.81,     362.35,
 957,   789.30,     403.24,
 958,   789.79,     368.49,
 959,   790.28,     380.75,
 960,   790.77,     417.58,
 961,   791.26,     376.68,
 962,   791.75,     407.31,
 963,   792.24,     368.49,
 964,   792.73,     386.90,
 965,   793.22,     370.53,
 966,   793.71,     435.94,
 967,   794.20,     444.14,
 968,   794.69,     399.16,
 969,   795.18,     397.12,
 970,   795.67,     399.17,
 971,   796.16,     382.79,
 972,   796.65,     444.11,
 973,   797.14,     448.20,
 974,   797.63,     460.47,
 975,   798.12,     468.65,
 976,   798.61,     485.01,
 977,   799.10,     456.38,
 978,   799.59,     433.88,
 979,   800.08,     497.24,

----,
DateTime:                , 2025/06/13,  14:18:41, 1749817122370,
RFID_EPC:                , --Not Acquired--,
RFID_UserData:           , --Not Acquired--,
Barcode:                 , t Acquired--,
Position:,    0.0000,      0.0000,    NoData,
Spectrometer:,            STS,  SerialNo:, S05415,
Spectral range:,          600,    800,
Boxcar:,                    0,
Sampling time (s):,         0.500,
Samples per Acq:,           1, 
Total Acq. time (s):,       0.519,
Board Temp):,              58.7,
Detector Temp):,           36.6,
----------------------------,
Pixel ,Wavelen   ,Signal    ,
======,==========,==========,
 567,   600.42,     131.14,
 568,   600.90,     110.66,
 569,   601.38,     129.10,
 570,   601.86,     131.14,
 571,   602.34,     143.43,
 572,   602.81,     118.85,
 573,   603.29,      61.49,
 574,   603.77,     106.55,
 575,   604.25,     124.99,
 576,   604.73,     127.05,
 577,   605.21,     145.48,
 578,   605.69,      77.88,
 579,   606.16,     131.14,
 580,   606.64,     118.85,
 581,   607.12,     122.96,
 582,   607.60,     106.56,
 583,   608.08,     129.09,
 584,   608.56,      81.98,
 585,   609.04,      98.37,
 586,   609.52,      86.08,
 587,   609.99,     122.94,
 588,   610.47,     104.52,
 589,   610.95,      94.27,
 590,   611.43,     133.19,
 591,   611.91,     149.58,
 592,   612.39,     114.75,
 593,   612.87,     102.47,
 594,   613.35,     133.19,
 595,   613.83,     129.09,
 596,   614.31,     118.85,
 597,   614.79,     120.90,
 598,   615.26,     143.43,
 599,   615.74,     118.85,
 600,   616.22,      57.39,
 601,   616.70,     116.81,
 602,   617.18,     139.33,
 603,   617.66,     143.43,
 604,   618.14,      79.93,
 605,   618.62,     112.70,
 606,   619.10,     127.04,
 607,   619.58,     133.19,
 608,   620.06,     -18.45,
 609,   620.54,      77.88,
 610,   621.02,     149.56,
 611,   621.50,     135.23,
 612,   621.98,     125.00,
 613,   622.46,     141.39,
 614,   622.94,     133.18,
 615,   623.42,     139.32,
 616,   623.90,     133.19,
 617,   624.38,      59.44,
 618,   624.86,     125.00,
 619,   625.34,     131.13,
 620,   625.82,     129.10,
 621,   626.30,     129.10,
 622,   626.78,      98.36,
 623,   627.26,     110.66,
 624,   627.74,      79.93,
 625,   628.22,     143.44,
 626,   628.70,     131.13,
 627,   629.18,      75.83,
 628,   629.66,     122.94,
 629,   630.14,     127.04,
 630,   630.62,     100.41,
 631,   631.10,     112.70,
 632,   631.58,     131.13,
 633,   632.06,     145.48,
 634,   632.54,     114.76,
 635,   633.02,     110.66,
 636,   633.50,     124.99,
 637,   633.98,     104.51,
 638,   634.47,     122.95,
 639,   634.95,     133.18,
 640,   635.43,      65.59,
 641,   635.91,     133.18,
 642,   636.39,      71.73,
 643,   636.87,     157.76,
 644,   637.35,     151.61,
 645,   637.83,     135.24,
 646,   638.31,     129.09,
 647,   638.79,     102.46,
 648,   639.27,     112.70,
 649,   639.75,     120.90,
 650,   640.24,     124.99,
 651,   640.72,     108.61,
 652,   641.20,     135.23,
 653,   641.68,     114.76,
 654,   642.16,     137.28,
 655,   642.64,     149.58,
 656,   643.12,     127.04,
 657,   643.60,     139.33,
 658,   644.09,     135.24,
 659,   644.57,     145.48,
 660,   645.05,     143.43,
 661,   645.53,     131.14,
 662,   646.01,      90.17,
 663,   646.49,     153.67,
 664,   646.97,      90.17,
 665,   647.46,     139.33,
 666,   647.94,     122.94,
 667,   648.42,     112.71,
 668,   648.90,     135.23,
 669,   649.38,     139.33,
 670,   649.86,     110.66,
 671,   650.35,     120.89,
 672,   650.83,      90.17,
 673,   651.31,     165.95,
 674,   651.79,     125.00,
 675,   652.27,     116.81,
 676,   652.76,     110.65,
 677,   653.24,      94.27,
 678,   653.72,     125.00,
 679,   654.20,      30.75,
 680,   654.68,     141.38,
 681,   655.17,      88.13,
 682,   655.65,     118.85,
 683,   656.13,     157.76,
 684,   656.61,     165.95,
 685,   657.09,     137.28,
 686,   657.58,     124.99,
 687,   658.06,     108.61,
 688,   658.54,      53.29,
 689,   659.02,     147.53,
 690,   659.51,     157.76,
 691,   659.99,     149.57,
 692,   660.47,     114.75,
 693,   660.95,     155.71,
 694,   661.44,     153.66,
 695,   661.92,     131.14,
 696,   662.40,     116.79,
 697,   662.88,     137.28,
 698,   663.37,     110.65,
 699,   663.85,     131.15,
 700,   664.33,     145.47,
 701,   664.81,     114.75,
 702,   665.30,     149.57,
 703,   665.78,     127.04,
 704,   666.26,     141.38,
 705,   666.74,     118.85,
 706,   667.23,     120.89,
 707,   667.71,     139.33,
 708,   668.19,     145.47,
 709,   668.68,     139.33,
 710,   669.16,     133.19,
 711,   669.64,     108.61,
 712,   670.13,     133.18,
 713,   670.61,     151.62,
 714,   671.09,     129.09,
 715,   671.57,     157.77,
 716,   672.06,     102.46,
 717,   672.54,     118.84,
 718,   673.02,     137.29,
 719,   673.51,     120.90,
 720,   673.99,     104.51,
 721,   674.47,     131.13,
 722,   674.96,     151.62,
 723,   675.44,     149.57,
 724,   675.92,     118.85,
 725,   676.41,      57.39,
 726,   676.89,     124.99,
 727,   677.37,     125.00,
 728,   677.86,      73.78,
 729,   678.34,     100.41,
 730,   678.83,     110.65,
 731,   679.31,      88.12,
 732,   679.79,     108.60,
 733,   680.28,      43.05,
 734,   680.76,      77.88,
 735,   681.24,     133.18,
 736,   681.73,     149.57,
 737,   682.21,     131.14,
 738,   682.70,     133.19,
 739,   683.18,     133.19,
 740,   683.66,     131.14,
 741,   684.15,     118.85,
 742,   684.63,     118.84,
 743,   685.12,     104.51,
 744,   685.60,     102.46,
 745,   686.08,      86.07,
 746,   686.57,     137.29,
 747,   687.05,     122.94,
 748,   687.54,     133.19,
 749,   688.02,     110.66,
 750,   688.50,     127.04,
 751,   688.99,     127.04,
 752,   689.47,      98.36,
 753,   689.96,     125.00,
 754,   690.44,      69.68,
 755,   690.93,     104.51,
 756,   691.41,     114.75,
 757,   691.89,     139.33,
 758,   692.38,      90.17,
 759,   692.86,      88.12,
 760,   693.35,      77.88,
 761,   693.83,      53.29,
 762,   694.32,     118.85,
 763,   694.80,     104.51,
 764,   695.29,     122.95,
 765,   695.77,     120.90,
 766,   696.25,      65.59,
 767,   696.74,     112.70,
 768,   697.22,     135.23,
 769,   697.71,     118.85,
 770,   698.19,      57.39,
 771,   698.68,     124.99,
 772,   699.16,      86.07,
 773,   699.65,     114.75,
 774,   700.13,     114.75,
 775,   700.62,     120.89,
 776,   701.10,     143.42,
 777,   701.59,     129.09,
 778,   702.07,     141.39,
 779,   702.56,     118.85,
 780,   703.04,     155.71,
 781,   703.53,     127.04,
 782,   704.01,     120.90,
 783,   704.50,      92.22,
 784,   704.98,     127.04,
 785,   705.47,     147.53,
 786,   705.95,     122.95,
 787,   706.44,      92.22,
 788,   706.92,     168.00,
 789,   707.41,     159.82,
 790,   707.89,     106.56,
 791,   708.38,     143.43,
 792,   708.87,     153.66,
 793,   709.35,     106.55,
 794,   709.84,     125.00,
 795,   710.32,     155.72,
 796,   710.81,     129.09,
 797,   711.29,     102.46,
 798,   711.78,     151.62,
 799,   712.26,      67.64,
 800,   712.75,     118.85,
 801,   713.24,     149.56,
 802,   713.72,     118.85,
 803,   714.21,     127.04,
 804,   714.69,     141.38,
 805,   715.18,     129.08,
 806,   715.66,     131.14,
 807,   716.15,      77.88,
 808,   716.64,     110.66,
 809,   717.12,      -2.05,
 810,   717.61,      81.98,
 811,   718.09,     106.57,
 812,   718.58,      98.36,
 813,   719.06,     106.56,
 814,   719.55,     102.46,
 815,   720.04,     106.56,
 816,   720.52,     145.47,
 817,   721.01,     147.53,
 818,   721.49,     151.62,
 819,   721.98,      96.31,
 820,   722.47,     137.28,
 821,   722.95,     172.10,
 822,   723.44,     133.19,
 823,   723.93,     133.18,
 824,   724.41,     120.90,
 825,   724.90,     112.70,
 826,   725.38,     124.99,
 827,   725.87,     161.86,
 828,   726.36,     122.94,
 829,   726.84,     131.14,
 830,   727.33,      94.27,
 831,   727.82,      79.93,
 832,   728.30,     165.96,
 833,   728.79,     104.51,
 834,   729.28,     143.43,
 835,   729.76,     135.24,
 836,   730.25,     122.95,
 837,   730.74,     143.43,
 838,   731.22,      59.43,
 839,   731.71,     129.09,
 840,   732.20,     145.47,
 841,   732.68,     141.38,
 842,   733.17,     100.42,
 843,   733.66,     161.86,
 844,   734.14,     174.15,
 845,   734.63,     149.57,
 846,   735.12,     133.18,
 847,   735.60,     118.85,
 848,   736.09,     133.18,
 849,   736.58,     163.90,
 850,   737.06,     147.53,
 851,   737.55,     159.81,
 852,   738.04,     141.39,
 853,   738.52,     120.89,
 854,   739.01,     145.48,
 855,   739.50,     170.05,
 856,   739.99,     135.23,
 857,   740.47,     141.37,
 858,   740.96,     147.52,
 859,   741.45,     124.99,
 860,   741.93,      34.85,
 861,   742.42,     149.57,
 862,   742.91,     143.42,
 863,   743.40,     153.67,
 864,   743.88,     153.67,
 865,   744.37,     145.48,
 866,   744.86,     139.34,
 867,   745.35,     143.42,
 868,   745.83,     108.61,
 869,   746.32,     149.57,
 870,   746.81,     104.51,
 871,   747.29,     139.33,
 872,   747.78,     124.99,
 873,   748.27,     149.56,
 874,   748.76,      79.93,
 875,   749.24,      98.36,
 876,   749.73,     116.80,
 877,   750.22,     131.14,
 878,   750.71,     124.99,
 879,   751.20,     143.43,
 880,   751.68,     120.89,
 881,   752.17,     139.33,
 882,   752.66,     114.75,
 883,   753.15,     143.43,
 884,   753.63,     133.18,
 885,   754.12,     159.81,
 886,   754.61,     122.94,
 887,   755.10,     147.52,
 888,   755.58,     119.87,
 889,   756.07,      92.22,
 890,   756.56,      96.32,
 891,   757.05,     118.85,
 892,   757.54,     129.09,
 893,   758.02,      41.00,
 894,   758.51,      92.22,
 895,   759.00,      90.17,
 896,   759.49,     124.99,
 897,   759.98,     147.52,
 898,   760.46,      88.12,
 899,   760.95,     118.85,
 900,   761.44,     124.99,
 901,   761.93,     110.66,
 902,   762.42,     100.41,
 903,   762.91,      69.68,
 904,   763.39,     151.63,
 905,   763.88,     110.65,
 906,   764.37,      -4.10,
 907,   764.86,     125.00,
 908,   765.35,     159.82,
 909,   765.84,     155.72,
 910,   766.32,      92.22,
 911,   766.81,     112.70,
 912,   767.30,     139.33,
 913,   767.79,     137.28,
 914,   768.28,      65.58,
 915,   768.77,     143.42,
 916,   769.25,     135.23,
 917,   769.74,     157.76,
 918,   770.23,     120.90,
 919,   770.72,     124.99,
 920,   771.21,     108.61,
 921,   771.70,     124.99,
 922,   772.19,     172.10,
 923,   772.67,     165.96,
 924,   773.16,     133.18,
 925,   773.65,     133.19,
 926,   774.14,     170.05,
 927,   774.63,     118.85,
 928,   775.12,     108.60,
 929,   775.61,      96.31,
 930,   776.10,     145.47,
 931,   776.59,     133.19,
 932,   777.07,     133.18,
 933,   777.56,     137.29,
 934,   778.05,     147.52,
 935,   778.54,     151.62,
 936,   779.03,     100.41,
 937,   779.52,     163.90,
 938,   780.01,     174.13,
 939,   780.50,      65.58,
 940,   780.99,     131.14,
 941,   781.47,     172.09,
 942,   781.96,     168.00,
 943,   782.45,     165.95,
 944,   782.94,     151.61,
 945,   783.43,     155.71,
 946,   783.92,     153.66,
 947,   784.41,     174.13,
 948,   784.90,     170.05,
 949,   785.39,     161.86,
 950,   785.88,     180.28,
 951,   786.37,     145.47,
 952,   786.86,     127.04,
 953,   787.35,     184.37,
 954,   787.83,     131.14,
 955,   788.32,     161.86,
 956,   788.81,     135.23,
 957,   789.30,     167.99,
 958,   789.79,     149.57,
 959,   790.28,     168.00,
 960,   790.77,     174.15,
 961,   791.26,     139.33,
 962,   791.75,     180.28,
 963,   792.24,     131.14,
 964,   792.73,     137.27,
 965,   793.22,     124.98,
 966,   793.71,     174.12,
 967,   794.20,     198.72,
 968,   794.69,     161.86,
 969,   795.18,     147.53,
 970,   795.67,     139.33,
 971,   796.16,     133.19,
 972,   796.65,     182.33,
 973,   797.14,     172.08,
 974,   797.63,     194.62,
 975,   798.12,     202.80,
 976,   798.61,     202.80,
 977,   799.10,     174.13,
 978,   799.59,     147.52,
 979,   800.08,     210.99,

----,
DateTime:                , 2025/06/13,  14:18:43, 1749817123932,
RFID_EPC:                , --Not Acquired--,
RFID_UserData:           , --Not Acquired--,
Barcode:                 , t Acquired--,
Position:,    0.0000,      0.0000,    NoData,
Spectrometer:,            STS,  SerialNo:, S05415,
Spectral range:,          600,    800,
Boxcar:,                    0,
Sampling time (s):,         0.500,
Samples per Acq:,           1, 
Total Acq. time (s):,       0.510,
Board Temp):,              58.9,
Detector Temp):,           36.6,
----------------------------,
Pixel ,Wavelen   ,Signal    ,
======,==========,==========,
 567,   600.42,     251.92,
 568,   600.90,     225.31,
 569,   601.38,     227.35,
 570,   601.86,     260.09,
 571,   602.34,     258.06,
 572,   602.81,     253.97,
 573,   603.29,     172.09,
 574,   603.77,     225.31,
 575,   604.25,     251.93,
 576,   604.73,     249.88,
 577,   605.21,     278.52,
 578,   605.69,     204.86,
 579,   606.16,     256.02,
 580,   606.64,     239.64,
 581,   607.12,     229.41,
 582,   607.60,     241.68,
 583,   608.08,     256.03,
 584,   608.56,     204.85,
 585,   609.04,     206.90,
 586,   609.52,     202.80,
 587,   609.99,     245.77,
 588,   610.47,     225.32,
 589,   610.95,     215.09,
 590,   611.43,     286.72,
 591,   611.91,     282.62,
 592,   612.39,     253.97,
 593,   612.87,     229.41,
 594,   613.35,     276.49,
 595,   613.83,     274.44,
 596,   614.31,     247.83,
 597,   614.79,     243.72,
 598,   615.26,     264.20,
 599,   615.74,     245.78,
 600,   616.22,     202.81,
 601,   616.70,     249.88,
 602,   617.18,     274.42,
 603,   617.66,     278.52,
 604,   618.14,     233.51,
 605,   618.62,     251.91,
 606,   619.10,     274.43,
 607,   619.58,     256.01,
 608,   620.06,     122.95,
 609,   620.54,     235.56,
 610,   621.02,     284.65,
 611,   621.50,     284.65,
 612,   621.98,     268.30,
 613,   622.46,     258.05,
 614,   622.94,     278.50,
 615,   623.42,     286.70,
 616,   623.90,     278.52,
 617,   624.38,     215.08,
 618,   624.86,     262.14,
 619,   625.34,     286.70,
 620,   625.82,     272.39,
 621,   626.30,     282.62,
 622,   626.78,     264.20,
 623,   627.26,     264.19,
 624,   627.74,     237.60,
 625,   628.22,     292.86,
 626,   628.70,     282.60,
 627,   629.18,     235.54,
 628,   629.66,     266.24,
 629,   630.14,     288.76,
 630,   630.62,     256.01,
 631,   631.10,     264.18,
 632,   631.58,     296.94,
 633,   632.06,     301.03,
 634,   632.54,     274.44,
 635,   633.02,     253.94,
 636,   633.50,     282.61,
 637,   633.98,     264.20,
 638,   634.47,     278.54,
 639,   634.95,     305.11,
 640,   635.43,     229.41,
 641,   635.91,     282.61,
 642,   636.39,     239.64,
 643,   636.87,     307.14,
 644,   637.35,     309.18,
 645,   637.83,     294.87,
 646,   638.31,     278.51,
 647,   638.79,     274.44,
 648,   639.27,     280.58,
 649,   639.75,     276.47,
 650,   640.24,     292.84,
 651,   640.72,     276.47,
 652,   641.20,     298.97,
 653,   641.68,     253.95,
 654,   642.16,     298.97,
 655,   642.64,     301.01,
 656,   643.12,     286.69,
 657,   643.60,     309.22,
 658,   644.09,     280.54,
 659,   644.57,     290.77,
 660,   645.05,     303.07,
 661,   645.53,     288.74,
 662,   646.01,     253.97,
 663,   646.49,     309.20,
 664,   646.97,     247.81,
 665,   647.46,     288.76,
 666,   647.94,     286.71,
 667,   648.42,     278.53,
 668,   648.90,     290.77,
 669,   649.38,     301.03,
 670,   649.86,     264.20,
 671,   650.35,     296.91,
 672,   650.83,     268.29,
 673,   651.31,     329.64,
 674,   651.79,     298.98,
 675,   652.27,     272.37,
 676,   652.76,     278.52,
 677,   653.24,     243.72,
 678,   653.72,     282.62,
 679,   654.20,     202.80,
 680,   654.68,     296.93,
 681,   655.17,     237.59,
 682,   655.65,     290.79,
 683,   656.13,     327.62,
 684,   656.61,     331.69,
 685,   657.09,     296.93,
 686,   657.58,     305.11,
 687,   658.06,     282.60,
 688,   658.54,     227.37,
 689,   659.02,     313.29,
 690,   659.51,     329.66,
 691,   659.99,     315.33,
 692,   660.47,     282.60,
 693,   660.95,     303.05,
 694,   661.44,     327.63,
 695,   661.92,     309.21,
 696,   662.40,     303.06,
 697,   662.88,     331.70,
 698,   663.37,     288.74,
 699,   663.85,     305.11,
 700,   664.33,     321.47,
 701,   664.81,     288.76,
 702,   665.30,     305.10,
 703,   665.78,     296.93,
 704,   666.26,     301.01,
 705,   666.74,     292.84,
 706,   667.23,     303.08,
 707,   667.71,     301.01,
 708,   668.19,     313.29,
 709,   668.68,     311.26,
 710,   669.16,     292.84,
 711,   669.64,     270.33,
 712,   670.13,     301.00,
 713,   670.61,     301.00,
 714,   671.09,     303.08,
 715,   671.57,     311.24,
 716,   672.06,     268.28,
 717,   672.54,     282.60,
 718,   673.02,     294.89,
 719,   673.51,     284.67,
 720,   673.99,     274.44,
 721,   674.47,     282.59,
 722,   674.96,     292.84,
 723,   675.44,     305.11,
 724,   675.92,     280.57,
 725,   676.41,     225.33,
 726,   676.89,     278.51,
 727,   677.37,     268.29,
 728,   677.86,     215.08,
 729,   678.34,     262.16,
 730,   678.83,     262.14,
 731,   679.31,     221.20,
 732,   679.79,     266.23,
 733,   680.28,     196.65,
 734,   680.76,     229.40,
 735,   681.24,     288.74,
 736,   681.73,     294.89,
 737,   682.21,     274.43,
 738,   682.70,     282.61,
 739,   683.18,     274.43,
 740,   683.66,     262.15,
 741,   684.15,     260.09,
 742,   684.63,     243.72,
 743,   685.12,     245.79,
 744,   685.60,     233.50,
 745,   686.08,     225.33,
 746,   686.57,     272.39,
 747,   687.05,     258.05,
 748,   687.54,     266.24,
 749,   688.02,     251.93,
 750,   688.50,     245.79,
 751,   688.99,     256.01,
 752,   689.47,     241.69,
 753,   689.96,     264.22,
 754,   690.44,     198.72,
 755,   690.93,     225.31,
 756,   691.41,     253.96,
 757,   691.89,     268.29,
 758,   692.38,     223.27,
 759,   692.86,     221.22,
 760,   693.35,     204.84,
 761,   693.83,     188.47,
 762,   694.32,     251.93,
 763,   694.80,     233.50,
 764,   695.29,     249.88,
 765,   695.77,     235.54,
 766,   696.25,     188.47,
 767,   696.74,     237.60,
 768,   697.22,     243.72,
 769,   697.71,     229.40,
 770,   698.19,     178.22,
 771,   698.68,     245.79,
 772,   699.16,     208.94,
 773,   699.65,     233.51,
 774,   700.13,     245.78,
 775,   700.62,     227.35,
 776,   701.10,     258.05,
 777,   701.59,     256.01,
 778,   702.07,     247.81,
 779,   702.56,     229.40,
 780,   703.04,     272.37,
 781,   703.53,     245.79,
 782,   704.01,     233.49,
 783,   704.50,     215.08,
 784,   704.98,     245.77,
 785,   705.47,     262.15,
 786,   705.95,     231.45,
 787,   706.44,     202.80,
 788,   706.92,     282.62,
 789,   707.41,     264.20,
 790,   707.89,     210.98,
 791,   708.38,     266.27,
 792,   708.87,     270.32,
 793,   709.35,     237.61,
 794,   709.84,     239.64,
 795,   710.32,     256.01,
 796,   710.81,     251.93,
 797,   711.29,     223.28,
 798,   711.78,     245.76,
 799,   712.26,     170.05,
 800,   712.75,     225.30,
 801,   713.24,     274.43,
 802,   713.72,     233.50,
 803,   714.21,     245.77,
 804,   714.69,     235.54,
 805,   715.18,     235.55,
 806,   715.66,     233.50,
 807,   716.15,     182.33,
 808,   716.64,     208.95,
 809,   717.12,      86.07,
 810,   717.61,     186.43,
 811,   718.09,     194.60,
 812,   718.58,     204.84,
 813,   719.06,     198.70,
 814,   719.55,     200.76,
 815,   720.04,     198.70,
 816,   720.52,     239.63,
 817,   721.01,     231.45,
 818,   721.49,     235.54,
 819,   721.98,     198.71,
 820,   722.47,     245.78,
 821,   722.95,     249.87,
 822,   723.44,     219.18,
 823,   723.93,     229.41,
 824,   724.41,     227.36,
 825,   724.90,     219.17,
 826,   725.38,     221.22,
 827,   725.87,     245.78,
 828,   726.36,     208.93,
 829,   726.84,     221.23,
 830,   727.33,     188.48,
 831,   727.82,     174.14,
 832,   728.30,     249.86,
 833,   728.79,     206.89,
 834,   729.28,     247.83,
 835,   729.76,     223.27,
 836,   730.25,     217.12,
 837,   730.74,     253.97,
 838,   731.22,     174.14,
 839,   731.71,     227.34,
 840,   732.20,     253.97,
 841,   732.68,     247.82,
 842,   733.17,     213.04,
 843,   733.66,     284.67,
 844,   734.14,     272.37,
 845,   734.63,     262.14,
 846,   735.12,     251.92,
 847,   735.60,     229.41,
 848,   736.09,     260.11,
 849,   736.58,     276.47,
 850,   737.06,     243.71,
 851,   737.55,     260.10,
 852,   738.04,     239.65,
 853,   738.52,     245.78,
 854,   739.01,     243.72,
 855,   739.50,     274.44,
 856,   739.99,     247.83,
 857,   740.47,     249.87,
 858,   740.96,     247.81,
 859,   741.45,     251.92,
 860,   741.93,     147.52,
 861,   742.42,     256.01,
 862,   742.91,     258.06,
 863,   743.40,     262.15,
 864,   743.88,     256.01,
 865,   744.37,     249.88,
 866,   744.86,     251.93,
 867,   745.35,     260.10,
 868,   745.83,     210.98,
 869,   746.32,     239.64,
 870,   746.81,     219.18,
 871,   747.29,     256.01,
 872,   747.78,     237.59,
 873,   748.27,     253.96,
 874,   748.76,     165.95,
 875,   749.24,     208.94,
 876,   749.73,     223.26,
 877,   750.22,     245.78,
 878,   750.71,     239.65,
 879,   751.20,     245.78,
 880,   751.68,     225.32,
 881,   752.17,     243.73,
 882,   752.66,     229.42,
 883,   753.15,     247.83,
 884,   753.63,     233.49,
 885,   754.12,     245.77,
 886,   754.61,     235.55,
 887,   755.10,     264.20,
 888,   755.58,     226.34,
 889,   756.07,     188.47,
 890,   756.56,     210.99,
 891,   757.05,     200.75,
 892,   757.54,     223.27,
 893,   758.02,     112.70,
 894,   758.51,     184.39,
 895,   759.00,     155.70,
 896,   759.49,     208.93,
 897,   759.98,     225.32,
 898,   760.46,     176.19,
 899,   760.95,     204.85,
 900,   761.44,     215.08,
 901,   761.93,     190.52,
 902,   762.42,     163.90,
 903,   762.91,     170.05,
 904,   763.39,     217.12,
 905,   763.88,     192.56,
 906,   764.37,      81.98,
 907,   764.86,     206.89,
 908,   765.35,     225.31,
 909,   765.84,     237.58,
 910,   766.32,     186.42,
 911,   766.81,     219.18,
 912,   767.30,     241.69,
 913,   767.79,     231.45,
 914,   768.28,     178.24,
 915,   768.77,     262.15,
 916,   769.25,     243.73,
 917,   769.74,     266.24,
 918,   770.23,     231.45,
 919,   770.72,     249.87,
 920,   771.21,     223.27,
 921,   771.70,     245.78,
 922,   772.19,     292.84,
 923,   772.67,     280.57,
 924,   773.16,     266.25,
 925,   773.65,     237.59,
 926,   774.14,     305.12,
 927,   774.63,     253.98,
 928,   775.12,     225.31,
 929,   775.61,     217.12,
 930,   776.10,     260.09,
 931,   776.59,     266.25,
 932,   777.07,     262.15,
 933,   777.56,     258.06,
 934,   778.05,     274.44,
 935,   778.54,     276.47,
 936,   779.03,     241.69,
 937,   779.52,     286.69,
 938,   780.01,     294.87,
 939,   780.50,     213.04,
 940,   780.99,     264.19,
 941,   781.47,     303.05,
 942,   781.96,     294.87,
 943,   782.45,     305.11,
 944,   782.94,     290.80,
 945,   783.43,     286.69,
 946,   783.92,     305.12,
 947,   784.41,     311.25,
 948,   784.90,     307.16,
 949,   785.39,     292.84,
 950,   785.88,     321.46,
 951,   786.37,     290.79,
 952,   786.86,     272.38,
 953,   787.35,     321.46,
 954,   787.83,     266.24,
 955,   788.32,     307.15,
 956,   788.81,     282.62,
 957,   789.30,     323.51,
 958,   789.79,     280.55,
 959,   790.28,     301.02,
 960,   790.77,     333.76,
 961,   791.26,     303.06,
 962,   791.75,     325.56,
 963,   792.24,     276.48,
 964,   792.73,     294.88,
 965,   793.22,     303.08,
 966,   793.71,     333.71,
 967,   794.20,     343.96,
 968,   794.69,     305.10,
 969,   795.18,     292.84,
 970,   795.67,     307.15,
 971,   796.16,     286.69,
 972,   796.65,     354.18,
 973,   797.14,     358.28,
 974,   797.63,     360.32,
 975,   798.12,     370.53,
 976,   798.61,     374.63,
 977,   799.10,     352.13,
 978,   799.59,     333.73,
 979,   800.08,     395.08,

----,
DateTime:                , 2025/06/13,  14:18:45, 1749817125745,
RFID_EPC:                , --Not Acquired--,
RFID_UserData:           , --Not Acquired--,
Barcode:                 , t Acquired--,
Position:,    0.0000,      0.0000,    NoData,
Spectrometer:,            STS,  SerialNo:, S05415,
Spectral range:,          600,    800,
Boxcar:,                    0,
Sampling time (s):,         0.500,
Samples per Acq:,           1, 
Total Acq. time (s):,       0.509,
Board Temp):,              59.1,
Detector Temp):,           36.6,
----------------------------,
Pixel ,Wavelen   ,Signal    ,
======,==========,==========,
 567,   600.42,     315.33,
 568,   600.90,     274.40,
 569,   601.38,     286.70,
 570,   601.86,     325.57,
 571,   602.34,     321.47,
 572,   602.81,     305.11,
 573,   603.29,     241.68,
 574,   603.77,     296.94,
 575,   604.25,     313.29,
 576,   604.73,     296.93,
 577,   605.21,     329.65,
 578,   605.69,     251.91,
 579,   606.16,     319.44,
 580,   606.64,     307.16,
 581,   607.12,     296.94,
 582,   607.60,     309.20,
 583,   608.08,     303.05,
 584,   608.56,     274.42,
 585,   609.04,     260.10,
 586,   609.52,     276.48,
 587,   609.99,     307.14,
 588,   610.47,     290.79,
 589,   610.95,     282.62,
 590,   611.43,     339.89,
 591,   611.91,     331.69,
 592,   612.39,     315.33,
 593,   612.87,     284.65,
 594,   613.35,     315.34,
 595,   613.83,     333.77,
 596,   614.31,     307.14,
 597,   614.79,     333.76,
 598,   615.26,     327.60,
 599,   615.74,     311.24,
 600,   616.22,     260.09,
 601,   616.70,     327.62,
 602,   617.18,     341.91,
 603,   617.66,     331.69,
 604,   618.14,     274.43,
 605,   618.62,     335.80,
 606,   619.10,     339.86,
 607,   619.58,     325.58,
 608,   620.06,     174.14,
 609,   620.54,     298.98,
 610,   621.02,     356.24,
 611,   621.50,     348.05,
 612,   621.98,     343.96,
 613,   622.46,     343.99,
 614,   622.94,     358.27,
 615,   623.42,     364.42,
 616,   623.90,     341.92,
 617,   624.38,     311.26,
 618,   624.86,     337.85,
 619,   625.34,     350.11,
 620,   625.82,     352.15,
 621,   626.30,     356.23,
 622,   626.78,     350.11,
 623,   627.26,     341.93,
 624,   627.74,     303.06,
 625,   628.22,     354.20,
 626,   628.70,     358.28,
 627,   629.18,     323.54,
 628,   629.66,     362.38,
 629,   630.14,     360.34,
 630,   630.62,     339.89,
 631,   631.10,     335.78,
 632,   631.58,     360.31,
 633,   632.06,     382.82,
 634,   632.54,     341.91,
 635,   633.02,     333.72,
 636,   633.50,     364.41,
 637,   633.98,     346.03,
 638,   634.47,     350.11,
 639,   634.95,     356.21,
 640,   635.43,     296.93,
 641,   635.91,     372.59,
 642,   636.39,     315.33,
 643,   636.87,     395.09,
 644,   637.35,     403.26,
 645,   637.83,     378.73,
 646,   638.31,     364.41,
 647,   638.79,     341.91,
 648,   639.27,     350.09,
 649,   639.75,     356.24,
 650,   640.24,     366.45,
 651,   640.72,     358.29,
 652,   641.20,     378.73,
 653,   641.68,     362.38,
 654,   642.16,     378.73,
 655,   642.64,     388.94,
 656,   643.12,     356.22,
 657,   643.60,     380.77,
 658,   644.09,     368.52,
 659,   644.57,     386.90,
 660,   645.05,     393.04,
 661,   645.53,     352.13,
 662,   646.01,     333.75,
 663,   646.49,     374.66,
 664,   646.97,     325.55,
 665,   647.46,     364.42,
 666,   647.94,     362.37,
 667,   648.42,     343.96,
 668,   648.90,     376.67,
 669,   649.38,     374.63,
 670,   649.86,     352.14,
 671,   650.35,     368.50,
 672,   650.83,     331.69,
 673,   651.31,     413.46,
 674,   651.79,     384.87,
 675,   652.27,     364.43,
 676,   652.76,     354.19,
 677,   653.24,     337.83,
 678,   653.72,     384.89,
 679,   654.20,     274.44,
 680,   654.68,     370.56,
 681,   655.17,     309.21,
 682,   655.65,     360.32,
 683,   656.13,     411.44,
 684,   656.61,     403.26,
 685,   657.09,     384.88,
 686,   657.58,     384.85,
 687,   658.06,     364.43,
 688,   658.54,     298.96,
 689,   659.02,     395.07,
 690,   659.51,     417.56,
 691,   659.99,     401.19,
 692,   660.47,     366.46,
 693,   660.95,     397.12,
 694,   661.44,     407.35,
 695,   661.92,     395.07,
 696,   662.40,     366.45,
 697,   662.88,     405.29,
 698,   663.37,     364.41,
 699,   663.85,     388.95,
 700,   664.33,     397.11,
 701,   664.81,     364.42,
 702,   665.30,     382.80,
 703,   665.78,     382.81,
 704,   666.26,     374.61,
 705,   666.74,     362.36,
 706,   667.23,     370.54,
 707,   667.71,     384.86,
 708,   668.19,     399.17,
 709,   668.68,     382.82,
 710,   669.16,     372.59,
 711,   669.64,     350.09,
 712,   670.13,     376.66,
 713,   670.61,     386.90,
 714,   671.09,     393.05,
 715,   671.57,     370.50,
 716,   672.06,     350.10,
 717,   672.54,     360.32,
 718,   673.02,     362.38,
 719,   673.51,     352.15,
 720,   673.99,     341.93,
 721,   674.47,     356.22,
 722,   674.96,     364.41,
 723,   675.44,     378.73,
 724,   675.92,     343.95,
 725,   676.41,     296.93,
 726,   676.89,     350.09,
 727,   677.37,     341.94,
 728,   677.86,     280.56,
 729,   678.34,     321.47,
 730,   678.83,     333.74,
 731,   679.31,     298.97,
 732,   679.79,     335.78,
 733,   680.28,     274.43,
 734,   680.76,     298.96,
 735,   681.24,     356.23,
 736,   681.73,     352.13,
 737,   682.21,     352.14,
 738,   682.70,     352.14,
 739,   683.18,     341.93,
 740,   683.66,     325.57,
 741,   684.15,     341.93,
 742,   684.63,     327.62,
 743,   685.12,     301.02,
 744,   685.60,     301.03,
 745,   686.08,     286.70,
 746,   686.57,     335.78,
 747,   687.05,     317.37,
 748,   687.54,     327.62,
 749,   688.02,     317.40,
 750,   688.50,     321.48,
 751,   688.99,     317.38,
 752,   689.47,     282.59,
 753,   689.96,     311.24,
 754,   690.44,     264.19,
 755,   690.93,     290.78,
 756,   691.41,     315.34,
 757,   691.89,     325.56,
 758,   692.38,     278.52,
 759,   692.86,     272.37,
 760,   693.35,     266.24,
 761,   693.83,     251.92,
 762,   694.32,     301.01,
 763,   694.80,     292.84,
 764,   695.29,     309.18,
 765,   695.77,     307.16,
 766,   696.25,     243.73,
 767,   696.74,     290.78,
 768,   697.22,     315.33,
 769,   697.71,     288.72,
 770,   698.19,     245.78,
 771,   698.68,     311.24,
 772,   699.16,     276.47,
 773,   699.65,     305.12,
 774,   700.13,     303.06,
 775,   700.62,     307.17,
 776,   701.10,     331.71,
 777,   701.59,     317.38,
 778,   702.07,     319.45,
 779,   702.56,     292.83,
 780,   703.04,     329.64,
 781,   703.53,     303.07,
 782,   704.01,     294.89,
 783,   704.50,     278.52,
 784,   704.98,     301.00,
 785,   705.47,     331.70,
 786,   705.95,     309.20,
 787,   706.44,     268.29,
 788,   706.92,     339.89,
 789,   707.41,     321.47,
 790,   707.89,     272.39,
 791,   708.38,     313.31,
 792,   708.87,     335.81,
 793,   709.35,     288.74,
 794,   709.84,     288.74,
 795,   710.32,     317.36,
 796,   710.81,     313.29,
 797,   711.29,     276.48,
 798,   711.78,     309.19,
 799,   712.26,     225.32,
 800,   712.75,     294.88,
 801,   713.24,     327.61,
 802,   713.72,     288.73,
 803,   714.21,     292.84,
 804,   714.69,     305.11,
 805,   715.18,     292.84,
 806,   715.66,     276.47,
 807,   716.15,     235.55,
 808,   716.64,     245.79,
 809,   717.12,     137.28,
 810,   717.61,     235.56,
 811,   718.09,     241.68,
 812,   718.58,     241.68,
 813,   719.06,     253.96,
 814,   719.55,     249.88,
 815,   720.04,     253.96,
 816,   720.52,     290.78,
 817,   721.01,     288.75,
 818,   721.49,     298.99,
 819,   721.98,     258.06,
 820,   722.47,     286.69,
 821,   722.95,     301.01,
 822,   723.44,     278.53,
 823,   723.93,     276.46,
 824,   724.41,     278.53,
 825,   724.90,     268.29,
 826,   725.38,     274.44,
 827,   725.87,     294.88,
 828,   726.36,     260.09,
 829,   726.84,     262.14,
 830,   727.33,     233.50,
 831,   727.82,     231.47,
 832,   728.30,     305.10,
 833,   728.79,     268.29,
 834,   729.28,     286.69,
 835,   729.76,     270.33,
 836,   730.25,     276.47,
 837,   730.74,     296.91,
 838,   731.22,     217.11,
 839,   731.71,     280.55,
 840,   732.20,     311.25,
 841,   732.68,     311.24,
 842,   733.17,     274.43,
 843,   733.66,     333.74,
 844,   734.14,     337.85,
 845,   734.63,     337.84,
 846,   735.12,     309.18,
 847,   735.60,     290.79,
 848,   736.09,     323.53,
 849,   736.58,     333.74,
 850,   737.06,     323.53,
 851,   737.55,     337.84,
 852,   738.04,     309.21,
 853,   738.52,     305.10,
 854,   739.01,     311.23,
 855,   739.50,     329.64,
 856,   739.99,     311.24,
 857,   740.47,     329.68,
 858,   740.96,     311.23,
 859,   741.45,     292.84,
 860,   741.93,     217.13,
 861,   742.42,     317.37,
 862,   742.91,     321.48,
 863,   743.40,     319.42,
 864,   743.88,     325.57,
 865,   744.37,     309.21,
 866,   744.86,     307.16,
 867,   745.35,     333.75,
 868,   745.83,     280.57,
 869,   746.32,     303.06,
 870,   746.81,     253.94,
 871,   747.29,     313.29,
 872,   747.78,     296.92,
 873,   748.27,     331.71,
 874,   748.76,     229.39,
 875,   749.24,     256.00,
 876,   749.73,     272.37,
 877,   750.22,     305.10,
 878,   750.71,     276.46,
 879,   751.20,     309.20,
 880,   751.68,     282.61,
 881,   752.17,     294.87,
 882,   752.66,     294.89,
 883,   753.15,     294.87,
 884,   753.63,     292.81,
 885,   754.12,     307.15,
 886,   754.61,     284.65,
 887,   755.10,     307.15,
 888,   755.58,     273.40,
 889,   756.07,     239.64,
 890,   756.56,     270.35,
 891,   757.05,     266.24,
 892,   757.54,     274.42,
 893,   758.02,     157.75,
 894,   758.51,     229.40,
 895,   759.00,     221.21,
 896,   759.49,     253.95,
 897,   759.98,     260.10,
 898,   760.46,     202.79,
 899,   760.95,     241.68,
 900,   761.44,     260.10,
 901,   761.93,     239.64,
 902,   762.42,     235.56,
 903,   762.91,     208.93,
 904,   763.39,     266.24,
 905,   763.88,     258.06,
 906,   764.37,     143.43,
 907,   764.86,     256.00,
 908,   765.35,     278.54,
 909,   765.84,     296.92,
 910,   766.32,     247.82,
 911,   766.81,     268.28,
 912,   767.30,     288.74,
 913,   767.79,     296.93,
 914,   768.28,     241.70,
 915,   768.77,     323.53,
 916,   769.25,     296.91,
 917,   769.74,     325.56,
 918,   770.23,     286.69,
 919,   770.72,     303.06,
 920,   771.21,     284.65,
 921,   771.70,     311.24,
 922,   772.19,     348.05,
 923,   772.67,     354.19,
 924,   773.16,     317.39,
 925,   773.65,     296.92,
 926,   774.14,     356.23,
 927,   774.63,     321.48,
 928,   775.12,     298.96,
 929,   775.61,     286.70,
 930,   776.10,     331.69,
 931,   776.59,     331.71,
 932,   777.07,     331.70,
 933,   777.56,     327.60,
 934,   778.05,     337.82,
 935,   778.54,     348.06,
 936,   779.03,     301.01,
 937,   779.52,     364.41,
 938,   780.01,     368.48,
 939,   780.50,     282.62,
 940,   780.99,     348.08,
 941,   781.47,     376.68,
 942,   781.96,     366.44,
 943,   782.45,     374.62,
 944,   782.94,     360.32,
 945,   783.43,     362.35,
 946,   783.92,     364.41,
 947,   784.41,     378.72,
 948,   784.90,     374.63,
 949,   785.39,     364.41,
 950,   785.88,     411.43,
 951,   786.37,     354.18,
 952,   786.86,     362.38,
 953,   787.35,     413.48,
 954,   787.83,     350.09,
 955,   788.32,     382.80,
 956,   788.81,     352.13,
 957,   789.30,     395.08,
 958,   789.79,     378.73,
 959,   790.28,     390.99,
 960,   790.77,     413.50,
 961,   791.26,     384.87,
 962,   791.75,     415.51,
 963,   792.24,     366.46,
 964,   792.73,     384.85,
 965,   793.22,     378.73,
 966,   793.71,     427.76,
 967,   794.20,     440.03,
 968,   794.69,     401.18,
 969,   795.18,     393.01,
 970,   795.67,     395.07,
 971,   796.16,     378.70,
 972,   796.65,     444.12,
 973,   797.14,     460.47,
 974,   797.63,     456.41,
 975,   798.12,     464.54,
 976,   798.61,     466.58,
 977,   799.10,     464.58,
 978,   799.59,     433.89,
 979,   800.08,     493.14,

----,
DateTime:                , 2025/06/13,  14:18:46, 1749817127385,
RFID_EPC:                , --Not Acquired--,
RFID_UserData:           , --Not Acquired--,
Barcode:                 , t Acquired--,
Position:,    0.0000,      0.0000,    NoData,
Spectrometer:,            STS,  SerialNo:, S05415,
Spectral range:,          600,    800,
Boxcar:,                    0,
Sampling time (s):,         0.500,
Samples per Acq:,           1, 
Total Acq. time (s):,       0.524,
Board Temp):,              58.9,
Detector Temp):,           36.6,
----------------------------,
Pixel ,Wavelen   ,Signal    ,
======,==========,==========,
 567,   600.42,     198.71,
 568,   600.90,     174.13,
 569,   601.38,     192.57,
 570,   601.86,     219.17,
 571,   602.34,     227.36,
 572,   602.81,     198.71,
 573,   603.29,     131.14,
 574,   603.77,     194.62,
 575,   604.25,     204.85,
 576,   604.73,     202.82,
 577,   605.21,     215.08,
 578,   605.69,     139.33,
 579,   606.16,     208.94,
 580,   606.64,     196.67,
 581,   607.12,     170.04,
 582,   607.60,     184.37,
 583,   608.08,     208.95,
 584,   608.56,     168.00,
 585,   609.04,     153.67,
 586,   609.52,     163.91,
 587,   609.99,     196.65,
 588,   610.47,     178.24,
 589,   610.95,     170.05,
 590,   611.43,     210.98,
 591,   611.91,     215.08,
 592,   612.39,     208.94,
 593,   612.87,     182.33,
 594,   613.35,     202.80,
 595,   613.83,     215.09,
 596,   614.31,     194.62,
 597,   614.79,     213.04,
 598,   615.26,     206.90,
 599,   615.74,     196.66,
 600,   616.22,     145.47,
 601,   616.70,     213.05,
 602,   617.18,     221.22,
 603,   617.66,     227.36,
 604,   618.14,     170.06,
 605,   618.62,     211.00,
 606,   619.10,     225.33,
 607,   619.58,     217.14,
 608,   620.06,      63.54,
 609,   620.54,     170.05,
 610,   621.02,     241.70,
 611,   621.50,     227.36,
 612,   621.98,     202.80,
 613,   622.46,     202.80,
 614,   622.94,     229.40,
 615,   623.42,     239.65,
 616,   623.90,     210.98,
 617,   624.38,     163.90,
 618,   624.86,     204.85,
 619,   625.34,     221.22,
 620,   625.82,     213.03,
 621,   626.30,     210.98,
 622,   626.78,     206.89,
 623,   627.26,     202.81,
 624,   627.74,     170.05,
 625,   628.22,     225.32,
 626,   628.70,     233.51,
 627,   629.18,     172.09,
 628,   629.66,     215.08,
 629,   630.14,     221.22,
 630,   630.62,     198.71,
 631,   631.10,     194.61,
 632,   631.58,     223.28,
 633,   632.06,     229.41,
 634,   632.54,     202.79,
 635,   633.02,     192.56,
 636,   633.50,     215.08,
 637,   633.98,     196.66,
 638,   634.47,     211.00,
 639,   634.95,     231.44,
 640,   635.43,     151.61,
 641,   635.91,     223.26,
 642,   636.39,     165.94,
 643,   636.87,     247.83,
 644,   637.35,     243.73,
 645,   637.83,     221.22,
 646,   638.31,     221.22,
 647,   638.79,     194.60,
 648,   639.27,     200.75,
 649,   639.75,     206.90,
 650,   640.24,     227.36,
 651,   640.72,     208.95,
 652,   641.20,     253.98,
 653,   641.68,     200.75,
 654,   642.16,     231.46,
 655,   642.64,     235.55,
 656,   643.12,     219.17,
 657,   643.60,     243.75,
 658,   644.09,     225.33,
 659,   644.57,     231.45,
 660,   645.05,     235.53,
 661,   645.53,     213.04,
 662,   646.01,     188.47,
 663,   646.49,     231.46,
 664,   646.97,     178.23,
 665,   647.46,     225.31,
 666,   647.94,     213.02,
 667,   648.42,     194.61,
 668,   648.90,     239.64,
 669,   649.38,     239.64,
 670,   649.86,     200.77,
 671,   650.35,     221.22,
 672,   650.83,     186.41,
 673,   651.31,     262.14,
 674,   651.79,     225.32,
 675,   652.27,     210.99,
 676,   652.76,     208.94,
 677,   653.24,     186.42,
 678,   653.72,     206.90,
 679,   654.20,     139.35,
 680,   654.68,     229.40,
 681,   655.17,     182.34,
 682,   655.65,     225.32,
 683,   656.13,     258.07,
 684,   656.61,     258.06,
 685,   657.09,     221.21,
 686,   657.58,     229.40,
 687,   658.06,     217.14,
 688,   658.54,     155.72,
 689,   659.02,     249.88,
 690,   659.51,     260.10,
 691,   659.99,     247.83,
 692,   660.47,     210.98,
 693,   660.95,     247.82,
 694,   661.44,     249.86,
 695,   661.92,     239.64,
 696,   662.40,     223.27,
 697,   662.88,     253.97,
 698,   663.37,     219.17,
 699,   663.85,     221.22,
 700,   664.33,     249.88,
 701,   664.81,     200.76,
 702,   665.30,     239.64,
 703,   665.78,     215.07,
 704,   666.26,     235.54,
 705,   666.74,     229.41,
 706,   667.23,     215.08,
 707,   667.71,     223.27,
 708,   668.19,     241.69,
 709,   668.68,     243.75,
 710,   669.16,     208.94,
 711,   669.64,     204.85,
 712,   670.13,     247.83,
 713,   670.61,     245.78,
 714,   671.09,     225.31,
 715,   671.57,     245.78,
 716,   672.06,     210.99,
 717,   672.54,     227.36,
 718,   673.02,     219.17,
 719,   673.51,     217.14,
 720,   673.99,     215.10,
 721,   674.47,     227.36,
 722,   674.96,     231.45,
 723,   675.44,     233.50,
 724,   675.92,     219.18,
 725,   676.41,     170.06,
 726,   676.89,     225.31,
 727,   677.37,     213.03,
 728,   677.86,     153.67,
 729,   678.34,     180.29,
 730,   678.83,     202.80,
 731,   679.31,     165.94,
 732,   679.79,     215.08,
 733,   680.28,     139.34,
 734,   680.76,     172.09,
 735,   681.24,     233.50,
 736,   681.73,     225.31,
 737,   682.21,     229.42,
 738,   682.70,     233.52,
 739,   683.18,     200.74,
 740,   683.66,     200.76,
 741,   684.15,     204.83,
 742,   684.63,     204.85,
 743,   685.12,     182.32,
 744,   685.60,     176.19,
 745,   686.08,     174.14,
 746,   686.57,     219.18,
 747,   687.05,     202.78,
 748,   687.54,     202.80,
 749,   688.02,     208.96,
 750,   688.50,     204.85,
 751,   688.99,     198.69,
 752,   689.47,     184.38,
 753,   689.96,     200.76,
 754,   690.44,     141.38,
 755,   690.93,     178.23,
 756,   691.41,     200.74,
 757,   691.89,     213.04,
 758,   692.38,     172.09,
 759,   692.86,     178.24,
 760,   693.35,     163.91,
 761,   693.83,     155.73,
 762,   694.32,     192.56,
 763,   694.80,     194.62,
 764,   695.29,     202.80,
 765,   695.77,     200.75,
 766,   696.25,     147.52,
 767,   696.74,     194.62,
 768,   697.22,     202.79,
 769,   697.71,     196.66,
 770,   698.19,     135.23,
 771,   698.68,     204.85,
 772,   699.16,     172.09,
 773,   699.65,     196.66,
 774,   700.13,     206.90,
 775,   700.62,     198.70,
 776,   701.10,     219.16,
 777,   701.59,     210.98,
 778,   702.07,     219.18,
 779,   702.56,     198.70,
 780,   703.04,     231.45,
 781,   703.53,     190.51,
 782,   704.01,     204.85,
 783,   704.50,     172.09,
 784,   704.98,     198.68,
 785,   705.47,     213.03,
 786,   705.95,     206.90,
 787,   706.44,     184.39,
 788,   706.92,     241.68,
 789,   707.41,     231.46,
 790,   707.89,     178.24,
 791,   708.38,     225.31,
 792,   708.87,     241.68,
 793,   709.35,     188.47,
 794,   709.84,     198.70,
 795,   710.32,     237.60,
 796,   710.81,     215.08,
 797,   711.29,     180.28,
 798,   711.78,     223.26,
 799,   712.26,     155.72,
 800,   712.75,     194.60,
 801,   713.24,     233.50,
 802,   713.72,     202.79,
 803,   714.21,     206.89,
 804,   714.69,     227.37,
 805,   715.18,     219.17,
 806,   715.66,     210.99,
 807,   716.15,     149.57,
 808,   716.64,     178.24,
 809,   717.12,      63.54,
 810,   717.61,     151.61,
 811,   718.09,     174.14,
 812,   718.58,     178.23,
 813,   719.06,     178.24,
 814,   719.55,     172.09,
 815,   720.04,     180.29,
 816,   720.52,     225.32,
 817,   721.01,     219.18,
 818,   721.49,     215.07,
 819,   721.98,     188.47,
 820,   722.47,     213.03,
 821,   722.95,     231.46,
 822,   723.44,     200.75,
 823,   723.93,     210.99,
 824,   724.41,     202.80,
 825,   724.90,     198.70,
 826,   725.38,     196.65,
 827,   725.87,     219.17,
 828,   726.36,     194.61,
 829,   726.84,     200.75,
 830,   727.33,     165.95,
 831,   727.82,     147.53,
 832,   728.30,     231.45,
 833,   728.79,     188.47,
 834,   729.28,     223.27,
 835,   729.76,     202.79,
 836,   730.25,     194.62,
 837,   730.74,     233.50,
 838,   731.22,     145.47,
 839,   731.71,     202.78,
 840,   732.20,     227.35,
 841,   732.68,     223.25,
 842,   733.17,     190.52,
 843,   733.66,     268.29,
 844,   734.14,     262.16,
 845,   734.63,     249.88,
 846,   735.12,     235.55,
 847,   735.60,     213.03,
 848,   736.09,     233.50,
 849,   736.58,     251.92,
 850,   737.06,     237.60,
 851,   737.55,     256.03,
 852,   738.04,     210.98,
 853,   738.52,     223.26,
 854,   739.01,     227.35,
 855,   739.50,     249.88,
 856,   739.99,     243.75,
 857,   740.47,     245.79,
 858,   740.96,     247.83,
 859,   741.45,     219.17,
 860,   741.93,     139.34,
 861,   742.42,     229.39,
 862,   742.91,     251.91,
 863,   743.40,     231.44,
 864,   743.88,     225.29,
 865,   744.37,     233.50,
 866,   744.86,     227.36,
 867,   745.35,     239.64,
 868,   745.83,     196.66,
 869,   746.32,     223.26,
 870,   746.81,     188.47,
 871,   747.29,     231.45,
 872,   747.78,     219.18,
 873,   748.27,     249.88,
 874,   748.76,     168.00,
 875,   749.24,     184.37,
 876,   749.73,     206.90,
 877,   750.22,     221.21,
 878,   750.71,     229.42,
 879,   751.20,     235.55,
 880,   751.68,     208.93,
 881,   752.17,     229.41,
 882,   752.66,     206.89,
 883,   753.15,     227.35,
 884,   753.63,     225.31,
 885,   754.12,     231.45,
 886,   754.61,     210.98,
 887,   755.10,     229.40,
 888,   755.58,     202.80,
 889,   756.07,     176.19,
 890,   756.56,     180.28,
 891,   757.05,     206.90,
 892,   757.54,     208.95,
 893,   758.02,      98.36,
 894,   758.51,     168.00,
 895,   759.00,     165.95,
 896,   759.49,     202.80,
 897,   759.98,     192.56,
 898,   760.46,     155.72,
 899,   760.95,     176.18,
 900,   761.44,     190.51,
 901,   761.93,     176.19,
 902,   762.42,     172.10,
 903,   762.91,     157.76,
 904,   763.39,     204.85,
 905,   763.88,     178.23,
 906,   764.37,      75.83,
 907,   764.86,     200.76,
 908,   765.35,     210.98,
 909,   765.84,     237.60,
 910,   766.32,     188.48,
 911,   766.81,     211.00,
 912,   767.30,     204.83,
 913,   767.79,     225.32,
 914,   768.28,     151.62,
 915,   768.77,     249.88,
 916,   769.25,     225.32,
 917,   769.74,     249.87,
 918,   770.23,     213.04,
 919,   770.72,     219.16,
 920,   771.21,     198.70,
 921,   771.70,     235.55,
 922,   772.19,     262.14,
 923,   772.67,     266.24,
 924,   773.16,     239.65,
 925,   773.65,     225.32,
 926,   774.14,     272.39,
 927,   774.63,     235.55,
 928,   775.12,     215.08,
 929,   775.61,     190.51,
 930,   776.10,     243.73,
 931,   776.59,     223.27,
 932,   777.07,     241.67,
 933,   777.56,     241.69,
 934,   778.05,     258.07,
 935,   778.54,     256.01,
 936,   779.03,     206.88,
 937,   779.52,     268.29,
 938,   780.01,     284.66,
 939,   780.50,     190.53,
 940,   780.99,     247.83,
 941,   781.47,     286.69,
 942,   781.96,     270.34,
 943,   782.45,     282.62,
 944,   782.94,     270.34,
 945,   783.43,     272.38,
 946,   783.92,     266.24,
 947,   784.41,     290.80,
 948,   784.90,     278.51,
 949,   785.39,     268.28,
 950,   785.88,     303.07,
 951,   786.37,     264.21,
 952,   786.86,     245.76,
 953,   787.35,     305.10,
 954,   787.83,     247.83,
 955,   788.32,     280.56,
 956,   788.81,     268.29,
 957,   789.30,     298.95,
 958,   789.79,     268.28,
 959,   790.28,     284.66,
 960,   790.77,     292.83,
 961,   791.26,     268.28,
 962,   791.75,     298.96,
 963,   792.24,     266.26,
 964,   792.73,     284.67,
 965,   793.22,     251.91,
 966,   793.71,     315.32,
 967,   794.20,     319.42,
 968,   794.69,     284.65,
 969,   795.18,     274.42,
 970,   795.67,     280.56,
 971,   796.16,     266.24,
 972,   796.65,     317.38,
 973,   797.14,     323.52,
 974,   797.63,     329.64,
 975,   798.12,     350.12,
 976,   798.61,     346.01,
 977,   799.10,     325.54,
 978,   799.59,     307.16,
 979,   800.08,     374.66,

----,
DateTime:                , 2025/06/13,  14:18:48, 1749817129041,
RFID_EPC:                , --Not Acquired--,
RFID_UserData:           , --Not Acquired--,
Barcode:                 , t Acquired--,
Position:,    0.0000,      0.0000,    NoData,
Spectrometer:,            STS,  SerialNo:, S05415,
Spectral range:,          600,    800,
Boxcar:,                    0,
Sampling time (s):,         0.500,
Samples per Acq:,           1, 
Total Acq. time (s):,       0.511,
Board Temp):,              59.1,
Detector Temp):,           36.6,
----------------------------,
Pixel ,Wavelen   ,Signal    ,
======,==========,==========,
 567,   600.42,     139.33,
 568,   600.90,     112.70,
 569,   601.38,     118.85,
 570,   601.86,     151.62,
 571,   602.34,     170.05,
 572,   602.81,     131.14,
 573,   603.29,      59.44,
 574,   603.77,     131.14,
 575,   604.25,     129.08,
 576,   604.73,     122.95,
 577,   605.21,     141.37,
 578,   605.69,      71.73,
 579,   606.16,     133.19,
 580,   606.64,     135.24,
 581,   607.12,     133.19,
 582,   607.60,     114.75,
 583,   608.08,     141.38,
 584,   608.56,     102.46,
 585,   609.04,      90.17,
 586,   609.52,      92.22,
 587,   609.99,     137.28,
 588,   610.47,     106.56,
 589,   610.95,      90.17,
 590,   611.43,     153.67,
 591,   611.91,     149.57,
 592,   612.39,     131.13,
 593,   612.87,     102.46,
 594,   613.35,     137.28,
 595,   613.83,     137.28,
 596,   614.31,     125.00,
 597,   614.79,     145.48,
 598,   615.26,     143.43,
 599,   615.74,     135.23,
 600,   616.22,      75.83,
 601,   616.70,     139.34,
 602,   617.18,     145.47,
 603,   617.66,     157.77,
 604,   618.14,      86.07,
 605,   618.62,     127.04,
 606,   619.10,     133.18,
 607,   619.58,     127.04,
 608,   620.06,     -36.90,
 609,   620.54,      96.32,
 610,   621.02,     147.51,
 611,   621.50,     157.76,
 612,   621.98,     141.39,
 613,   622.46,     153.67,
 614,   622.94,     139.32,
 615,   623.42,     151.61,
 616,   623.90,     147.52,
 617,   624.38,      94.27,
 618,   624.86,     116.80,
 619,   625.34,     127.04,
 620,   625.82,     135.24,
 621,   626.30,     137.28,
 622,   626.78,     127.04,
 623,   627.26,     120.89,
 624,   627.74,     100.42,
 625,   628.22,     147.53,
 626,   628.70,     149.58,
 627,   629.18,      92.22,
 628,   629.66,     135.23,
 629,   630.14,     141.38,
 630,   630.62,     118.85,
 631,   631.10,     120.90,
 632,   631.58,     141.38,
 633,   632.06,     151.62,
 634,   632.54,     122.95,
 635,   633.02,     118.85,
 636,   633.50,     139.33,
 637,   633.98,     122.95,
 638,   634.47,     118.85,
 639,   634.95,     149.58,
 640,   635.43,      79.93,
 641,   635.91,     124.98,
 642,   636.39,      88.12,
 643,   636.87,     159.81,
 644,   637.35,     170.05,
 645,   637.83,     149.57,
 646,   638.31,     137.27,
 647,   638.79,     116.80,
 648,   639.27,     131.14,
 649,   639.75,     131.13,
 650,   640.24,     135.23,
 651,   640.72,     127.04,
 652,   641.20,     151.62,
 653,   641.68,     122.95,
 654,   642.16,     141.38,
 655,   642.64,     153.66,
 656,   643.12,     159.82,
 657,   643.60,     153.67,
 658,   644.09,     133.19,
 659,   644.57,     149.56,
 660,   645.05,     168.00,
 661,   645.53,     139.33,
 662,   646.01,     102.46,
 663,   646.49,     159.81,
 664,   646.97,     110.66,
 665,   647.46,     147.53,
 666,   647.94,     141.38,
 667,   648.42,     112.71,
 668,   648.90,     159.80,
 669,   649.38,     157.76,
 670,   649.86,     124.99,
 671,   650.35,     149.57,
 672,   650.83,     106.55,
 673,   651.31,     174.14,
 674,   651.79,     137.29,
 675,   652.27,     127.05,
 676,   652.76,     122.94,
 677,   653.24,     106.56,
 678,   653.72,     145.47,
 679,   654.20,      57.39,
 680,   654.68,     151.62,
 681,   655.17,     100.42,
 682,   655.65,     137.28,
 683,   656.13,     161.85,
 684,   656.61,     168.00,
 685,   657.09,     151.62,
 686,   657.58,     157.76,
 687,   658.06,     120.89,
 688,   658.54,      63.54,
 689,   659.02,     172.11,
 690,   659.51,     176.20,
 691,   659.99,     172.10,
 692,   660.47,     133.19,
 693,   660.95,     159.81,
 694,   661.44,     155.71,
 695,   661.92,     145.47,
 696,   662.40,     137.28,
 697,   662.88,     176.20,
 698,   663.37,     131.14,
 699,   663.85,     145.48,
 700,   664.33,     178.24,
 701,   664.81,     127.04,
 702,   665.30,     153.67,
 703,   665.78,     153.67,
 704,   666.26,     149.57,
 705,   666.74,     127.04,
 706,   667.23,     147.52,
 707,   667.71,     149.57,
 708,   668.19,     161.86,
 709,   668.68,     159.81,
 710,   669.16,     135.23,
 711,   669.64,     116.80,
 712,   670.13,     159.81,
 713,   670.61,     172.09,
 714,   671.09,     151.61,
 715,   671.57,     174.15,
 716,   672.06,     122.94,
 717,   672.54,     155.72,
 718,   673.02,     141.38,
 719,   673.51,     134.21,
 720,   673.99,     127.04,
 721,   674.47,     145.47,
 722,   674.96,     147.52,
 723,   675.44,     161.86,
 724,   675.92,     139.33,
 725,   676.41,      96.32,
 726,   676.89,     131.13,
 727,   677.37,     149.58,
 728,   677.86,      84.03,
 729,   678.34,     122.95,
 730,   678.83,     131.14,
 731,   679.31,      98.37,
 732,   679.79,     135.23,
 733,   680.28,      63.54,
 734,   680.76,      94.27,
 735,   681.24,     153.66,
 736,   681.73,     151.61,
 737,   682.21,     151.62,
 738,   682.70,     147.52,
 739,   683.18,     149.58,
 740,   683.66,     147.53,
 741,   684.15,     141.37,
 742,   684.63,     135.23,
 743,   685.12,     124.99,
 744,   685.60,     122.95,
 745,   686.08,     106.55,
 746,   686.57,     149.57,
 747,   687.05,     143.42,
 748,   687.54,     151.62,
 749,   688.02,     137.29,
 750,   688.50,     143.43,
 751,   688.99,     137.28,
 752,   689.47,     114.75,
 753,   689.96,     137.28,
 754,   690.44,      79.93,
 755,   690.93,     114.75,
 756,   691.41,     147.53,
 757,   691.89,     159.82,
 758,   692.38,     104.51,
 759,   692.86,     114.76,
 760,   693.35,      94.27,
 761,   693.83,      86.07,
 762,   694.32,     145.48,
 763,   694.80,     127.04,
 764,   695.29,     127.03,
 765,   695.77,     141.37,
 766,   696.25,      81.98,
 767,   696.74,     131.14,
 768,   697.22,     151.61,
 769,   697.71,     141.38,
 770,   698.19,      86.08,
 771,   698.68,     149.58,
 772,   699.16,     116.80,
 773,   699.65,     122.94,
 774,   700.13,     141.38,
 775,   700.62,     133.18,
 776,   701.10,     145.46,
 777,   701.59,     151.61,
 778,   702.07,     159.82,
 779,   702.56,     133.18,
 780,   703.04,     170.04,
 781,   703.53,     137.28,
 782,   704.01,     145.47,
 783,   704.50,     100.41,
 784,   704.98,     143.41,
 785,   705.47,     149.56,
 786,   705.95,     147.52,
 787,   706.44,     118.85,
 788,   706.92,     184.38,
 789,   707.41,     172.09,
 790,   707.89,     122.95,
 791,   708.38,     161.86,
 792,   708.87,     180.27,
 793,   709.35,     114.75,
 794,   709.84,     133.18,
 795,   710.32,     176.19,
 796,   710.81,     155.72,
 797,   711.29,     129.09,
 798,   711.78,     163.91,
 799,   712.26,      81.98,
 800,   712.75,     137.28,
 801,   713.24,     174.13,
 802,   713.72,     139.32,
 803,   714.21,     147.52,
 804,   714.69,     155.71,
 805,   715.18,     161.86,
 806,   715.66,     143.42,
 807,   716.15,      96.31,
 808,   716.64,     118.84,
 809,   717.12,      32.80,
 810,   717.61,     100.41,
 811,   718.09,     129.08,
 812,   718.58,     139.33,
 813,   719.06,     127.04,
 814,   719.55,     124.99,
 815,   720.04,     143.43,
 816,   720.52,     176.19,
 817,   721.01,     155.71,
 818,   721.49,     168.00,
 819,   721.98,     127.04,
 820,   722.47,     168.00,
 821,   722.95,     190.52,
 822,   723.44,     153.66,
 823,   723.93,     151.61,
 824,   724.41,     151.62,
 825,   724.90,     155.71,
 826,   725.38,     153.66,
 827,   725.87,     182.33,
 828,   726.36,     153.67,
 829,   726.84,     163.91,
 830,   727.33,     110.66,
 831,   727.82,      94.27,
 832,   728.30,     188.47,
 833,   728.79,     127.04,
 834,   729.28,     178.23,
 835,   729.76,     159.82,
 836,   730.25,     143.42,
 837,   730.74,     167.99,
 838,   731.22,     100.41,
 839,   731.71,     155.70,
 840,   732.20,     188.48,
 841,   732.68,     170.03,
 842,   733.17,     141.39,
 843,   733.66,     206.90,
 844,   734.14,     196.67,
 845,   734.63,     182.34,
 846,   735.12,     184.38,
 847,   735.60,     149.56,
 848,   736.09,     176.18,
 849,   736.58,     186.42,
 850,   737.06,     184.39,
 851,   737.55,     182.32,
 852,   738.04,     168.01,
 853,   738.52,     176.19,
 854,   739.01,     176.19,
 855,   739.50,     192.56,
 856,   739.99,     176.19,
 857,   740.47,     186.42,
 858,   740.96,     186.42,
 859,   741.45,     168.00,
 860,   741.93,      79.93,
 861,   742.42,     184.37,
 862,   742.91,     188.47,
 863,   743.40,     182.32,
 864,   743.88,     194.62,
 865,   744.37,     184.37,
 866,   744.86,     178.24,
 867,   745.35,     178.23,
 868,   745.83,     153.67,
 869,   746.32,     178.24,
 870,   746.81,     149.57,
 871,   747.29,     176.19,
 872,   747.78,     161.86,
 873,   748.27,     192.56,
 874,   748.76,     120.90,
 875,   749.24,     135.23,
 876,   749.73,     151.61,
 877,   750.22,     172.09,
 878,   750.71,     157.75,
 879,   751.20,     178.23,
 880,   751.68,     157.76,
 881,   752.17,     186.43,
 882,   752.66,     155.71,
 883,   753.15,     172.09,
 884,   753.63,     167.99,
 885,   754.12,     188.47,
 886,   754.61,     174.14,
 887,   755.10,     188.47,
 888,   755.58,     157.76,
 889,   756.07,     127.04,
 890,   756.56,     139.33,
 891,   757.05,     163.90,
 892,   757.54,     161.85,
 893,   758.02,      63.54,
 894,   758.51,     129.10,
 895,   759.00,     112.70,
 896,   759.49,     157.76,
 897,   759.98,     165.95,
 898,   760.46,     106.56,
 899,   760.95,     145.47,
 900,   761.44,     147.52,
 901,   761.93,     131.13,
 902,   762.42,     122.94,
 903,   762.91,     102.46,
 904,   763.39,     155.70,
 905,   763.88,     149.58,
 906,   764.37,      30.75,
 907,   764.86,     157.76,
 908,   765.35,     170.05,
 909,   765.84,     176.19,
 910,   766.32,     139.33,
 911,   766.81,     159.81,
 912,   767.30,     170.05,
 913,   767.79,     182.33,
 914,   768.28,     112.71,
 915,   768.77,     200.75,
 916,   769.25,     167.99,
 917,   769.74,     190.52,
 918,   770.23,     168.01,
 919,   770.72,     174.14,
 920,   771.21,     149.57,
 921,   771.70,     176.20,
 922,   772.19,     217.12,
 923,   772.67,     221.22,
 924,   773.16,     188.48,
 925,   773.65,     155.71,
 926,   774.14,     215.07,
 927,   774.63,     165.94,
 928,   775.12,     153.66,
 929,   775.61,     143.43,
 930,   776.10,     182.32,
 931,   776.59,     180.28,
 932,   777.07,     182.33,
 933,   777.56,     180.28,
 934,   778.05,     217.14,
 935,   778.54,     198.70,
 936,   779.03,     151.61,
 937,   779.52,     221.22,
 938,   780.01,     217.11,
 939,   780.50,     129.09,
 940,   780.99,     182.33,
 941,   781.47,     219.17,
 942,   781.96,     213.03,
 943,   782.45,     213.02,
 944,   782.94,     210.99,
 945,   783.43,     215.09,
 946,   783.92,     204.85,
 947,   784.41,     225.31,
 948,   784.90,     217.13,
 949,   785.39,     198.69,
 950,   785.88,     233.49,
 951,   786.37,     219.18,
 952,   786.86,     202.81,
 953,   787.35,     245.78,
 954,   787.83,     174.14,
 955,   788.32,     221.22,
 956,   788.81,     182.31,
 957,   789.30,     231.45,
 958,   789.79,     206.90,
 959,   790.28,     213.03,
 960,   790.77,     231.45,
 961,   791.26,     194.61,
 962,   791.75,     235.54,
 963,   792.24,     190.51,
 964,   792.73,     198.70,
 965,   793.22,     196.65,
 966,   793.71,     253.96,
 967,   794.20,     239.62,
 968,   794.69,     215.08,
 969,   795.18,     211.00,
 970,   795.67,     219.18,
 971,   796.16,     192.56,
 972,   796.65,     239.63,
 973,   797.14,     247.83,
 974,   797.63,     266.26,
 975,   798.12,     270.32,
 976,   798.61,     270.34,
 977,   799.10,     249.86,
 978,   799.59,     219.16,
 979,   800.08,     278.50,

